timestamps,TP9,AF7,AF8,TP10,Right AUX
1587066418.159,-39.551,-69.336,-468.750,-32.227,0.000
1587066418.163,-66.406,-12.695,-440.430,-72.754,0.000
1587066418.167,-44.434,-90.820,-492.676,-61.523,0.000
1587066418.171,-33.691,84.961,-305.176,-49.805,0.000
1587066418.175,-42.969,116.699,-288.574,-47.363,0.000
1587066418.178,-57.129,-69.824,-465.332,-58.594,0.000
1587066418.182,-49.316,-221.191,-591.309,-50.293,0.000
1587066418.186,-10.742,-168.945,-517.090,-14.648,0.000
1587066418.190,-31.250,131.836,-322.266,-34.668,0.000
1587066418.194,-68.359,20.996,-455.566,-50.293,0.000
1587066418.198,-65.918,-170.410,-568.359,-45.898,0.000
1587066418.202,-42.480,-1.953,-387.207,-44.434,0.000
1587066418.206,-33.203,131.348,-273.438,-39.551,0.000
1587066418.210,-45.410,25.879,-349.121,-36.621,0.000
1587066418.214,-45.898,-133.789,-516.602,-30.273,0.000
1587066418.218,-28.809,-57.617,-434.570,-40.039,0.000
1587066418.221,-5.859,8.301,-341.309,-38.086,0.000
1587066418.225,-23.926,-96.191,-450.684,-39.062,0.000
1587066418.229,-34.180,-293.457,-651.367,-40.527,0.000
1587066418.233,-37.598,-76.660,-463.867,-44.434,0.000
1587066418.237,-26.367,175.781,-270.996,-36.133,0.000
1587066418.241,-25.879,37.598,-395.020,-26.855,0.000
1587066418.245,-51.758,-90.820,-431.641,-46.387,0.000
1587066418.249,-62.500,-8.301,-361.328,-52.734,0.000
1587066418.253,-27.344,97.168,-283.203,-23.926,0.000
1587066418.257,8.301,28.809,-352.051,-10.254,0.000
1587066418.260,-18.555,-62.988,-412.598,-37.598,0.000
1587066418.264,-62.012,-21.484,-359.863,-63.477,0.000
1587066418.268,-44.434,33.691,-323.242,-34.180,0.000
1587066418.272,3.906,-110.352,-435.059,7.812,0.000
1587066418.276,-11.719,-238.281,-496.094,-0.977,0.000
1587066418.280,-46.387,-92.285,-457.031,-45.898,0.000
1587066418.284,-36.133,44.922,-381.836,-47.852,0.000
1587066418.288,-7.324,-6.348,-371.582,-14.648,0.000
1587066418.292,-7.812,-93.262,-444.824,-17.090,0.000
1587066418.296,-62.012,-41.504,-418.457,-56.152,0.000
1587066418.300,-73.242,16.602,-355.957,-62.012,0.000
1587066418.303,-18.555,-10.742,-409.668,-25.879,0.000
1587066418.307,-17.578,24.414,-363.281,-23.926,0.000
1587066418.311,-66.895,26.855,-318.359,-55.664,0.000
1587066418.315,-71.289,-73.242,-432.129,-59.570,0.000
1587066418.319,-15.625,-159.180,-509.277,-15.625,0.000
1587066418.323,10.254,-41.992,-404.785,-8.301,0.000
1587066418.327,-32.227,82.520,-301.758,-41.016,0.000
1587066418.331,-56.152,-57.617,-421.875,-44.922,0.000
1587066418.335,-11.230,-283.203,-611.816,-5.859,0.000
1587066418.339,-3.906,-42.969,-419.434,-12.695,0.000
1587066418.343,-49.805,126.953,-274.902,-48.340,0.000
1587066418.346,-75.684,-89.844,-451.660,-59.570,0.000
1587066418.350,-58.105,-88.379,-420.898,-46.875,0.000
1587066418.354,-30.273,68.359,-290.527,-22.461,0.000
1587066418.358,-39.062,46.875,-339.844,-40.527,0.000
1587066418.362,-62.012,-118.652,-470.215,-59.570,0.000
1587066418.366,-45.898,-203.613,-489.258,-53.223,0.000
1587066418.370,-9.766,-56.641,-348.145,-39.551,0.000
1587066418.374,-31.738,48.340,-353.027,-36.621,0.000
1587066418.378,-58.594,-169.922,-499.512,-37.109,0.000
1587066418.382,-40.527,-313.965,-532.715,-32.715,0.000
1587066418.385,-23.926,-58.105,-400.879,-27.832,0.000
1587066418.389,-26.367,106.445,-285.645,-36.621,0.000
1587066418.393,-47.852,-61.035,-445.801,-52.246,0.000
1587066418.397,-61.523,-130.371,-511.230,-63.477,0.000
1587066418.401,-41.016,41.504,-337.891,-55.664,0.000
1587066418.405,-14.160,78.613,-283.691,-26.855,0.000
1587066418.409,-22.461,-90.820,-458.008,-24.902,0.000
1587066418.413,-50.781,-176.270,-541.992,-43.945,0.000
1587066418.417,-53.711,-51.270,-407.227,-52.246,0.000
1587066418.421,-21.484,56.641,-295.898,-35.156,0.000
1587066418.425,-18.066,-173.828,-502.930,-11.719,0.000
1587066418.428,-70.312,-91.797,-435.059,-50.293,0.000
1587066418.432,-81.543,84.961,-312.012,-70.801,0.000
1587066418.436,-31.738,43.945,-298.340,-40.527,0.000
1587066418.440,-20.996,5.859,-316.406,-21.973,0.000
1587066418.444,-55.664,15.137,-316.406,-42.969,0.000
1587066418.448,-61.035,-47.363,-399.902,-59.570,0.000
1587066418.452,-25.879,-111.816,-480.957,-31.738,0.000
1587066418.456,-7.812,-71.777,-417.480,-22.461,0.000
1587066418.460,-37.598,-119.141,-448.242,-41.992,0.000
1587066418.464,-73.730,-98.145,-417.480,-59.570,0.000
1587066418.468,-35.156,-138.672,-459.473,-34.180,0.000
1587066418.471,6.836,-210.938,-480.469,6.836,0.000
1587066418.475,-34.668,14.648,-380.859,-23.926,0.000
1587066418.479,-60.059,-110.840,-543.945,-53.223,0.000
1587066418.483,-53.223,-112.305,-514.160,-42.969,0.000
1587066418.487,-30.273,105.469,-262.695,-21.484,0.000
1587066418.491,-26.855,91.309,-296.875,-27.344,0.000
1587066418.495,-61.035,-32.227,-405.762,-49.805,0.000
1587066418.499,-71.777,-137.207,-535.156,-59.082,0.000
1587066418.503,-42.480,-37.598,-426.758,-54.199,0.000
1587066418.507,-12.207,-6.836,-387.207,-38.574,0.000
1587066418.510,-44.434,-140.137,-526.855,-42.480,0.000
1587066418.514,-70.801,-327.148,-677.246,-43.457,0.000
1587066418.518,-69.336,-84.473,-450.195,-50.293,0.000
1587066418.522,-70.312,209.473,-225.586,-60.547,0.000
1587066418.526,-80.566,12.207,-390.137,-57.129,0.000
1587066418.530,-95.703,-148.926,-474.121,-72.754,0.000
1587066418.534,-72.266,-9.766,-359.375,-72.266,0.000
1587066418.538,-38.574,103.516,-243.164,-45.410,0.000
1587066418.542,-39.551,-14.648,-400.879,-31.738,0.000
1587066418.546,-61.523,-108.887,-458.008,-57.617,0.000
1587066418.550,-70.801,-99.609,-458.984,-61.035,0.000
1587066418.553,-29.297,-54.199,-437.012,-33.203,0.000
1587066418.557,-25.391,-86.426,-435.547,-21.973,0.000
1587066418.561,-66.895,-242.676,-546.387,-38.574,0.000
1587066418.565,-96.191,-9.277,-422.852,-79.102,0.000
1587066418.569,-57.129,111.328,-328.613,-52.246,0.000
1587066418.573,-20.508,-67.383,-451.172,-11.230,0.000
1587066418.577,-55.176,-98.633,-499.512,-32.715,0.000
1587066418.581,-89.355,20.508,-376.465,-67.871,0.000
1587066418.585,-51.758,65.430,-308.105,-46.875,0.000
1587066418.589,-7.812,-20.508,-411.133,-4.395,0.000
1587066418.593,-29.297,3.906,-376.465,-15.137,0.000
1587066418.596,-56.152,6.836,-355.957,-38.086,0.000
1587066418.600,-42.969,-154.297,-527.832,-20.020,0.000
1587066418.604,5.371,-259.766,-616.699,29.297,0.000
1587066418.608,-13.672,-72.754,-457.520,11.719,0.000
1587066418.612,-70.801,96.680,-337.402,-40.039,0.000
1587066418.616,-57.129,28.809,-390.137,-33.203,0.000
1587066418.620,-21.973,1.465,-338.867,-10.742,0.000
1587066418.624,-25.391,74.219,-285.645,-14.160,0.000
1587066418.628,-51.270,-2.930,-382.324,-29.785,0.000
1587066418.632,-48.828,-135.742,-494.629,-27.832,0.000
1587066418.635,-32.715,1.953,-358.887,-19.531,0.000
1587066418.639,-6.348,127.441,-236.816,-17.090,0.000
1587066418.643,-16.113,-23.926,-372.559,-23.926,0.000
1587066418.647,-64.941,-229.980,-546.875,-28.320,0.000
1587066418.651,-59.570,-145.508,-459.473,-24.902,0.000
1587066418.655,-32.227,39.551,-289.062,-15.625,0.000
1587066418.659,-41.992,48.828,-330.566,-14.648,0.000
1587066418.663,-42.969,-214.355,-560.547,-5.859,0.000
1587066418.667,-25.391,-337.891,-610.352,3.418,0.000
1587066418.671,-27.832,77.148,-303.223,-22.949,0.000
1587066418.675,-40.039,99.121,-324.219,-29.297,0.000
1587066418.678,-58.594,-167.969,-566.895,-32.227,0.000
1587066418.682,-68.359,-78.125,-482.422,-45.898,0.000
1587066418.686,-41.016,34.180,-324.219,-38.574,0.000
1587066418.690,-30.273,-32.715,-387.207,-30.273,0.000
1587066418.694,-45.898,-244.629,-614.746,-38.086,0.000
1587066418.698,-73.730,-151.367,-505.371,-71.777,0.000
1587066418.702,-65.918,131.348,-247.070,-71.777,0.000
1587066418.706,-22.949,60.059,-302.734,-27.832,0.000
1587066418.710,-36.133,-187.500,-509.277,-19.043,0.000
1587066418.714,-86.914,-81.543,-430.664,-61.035,0.000
1587066418.718,-73.242,63.477,-297.363,-65.430,0.000
1587066418.721,-23.438,13.184,-312.988,-29.785,0.000
1587066418.725,-43.457,-50.781,-344.238,-28.320,0.000
1587066418.729,-85.449,-20.996,-333.496,-62.012,0.000
1587066418.733,-68.848,20.020,-325.684,-64.941,0.000
1587066418.737,-22.461,-27.832,-352.539,-30.273,0.000
1587066418.741,-19.531,-115.723,-431.641,-22.949,0.000
1587066418.745,-51.270,-184.082,-466.797,-43.457,0.000
1587066418.749,-50.781,-109.863,-432.129,-52.734,0.000
1587066418.753,-23.438,-87.402,-448.242,-29.785,0.000
1587066418.757,-22.949,-194.824,-476.562,-9.277,0.000
1587066418.760,-74.707,-52.734,-433.105,-43.457,0.000
1587066418.764,-97.656,30.762,-409.180,-76.172,0.000
1587066418.768,-46.875,2.441,-421.875,-57.129,0.000
1587066418.772,-8.301,61.035,-333.496,-41.504,0.000
1587066418.776,-59.570,46.875,-302.246,-57.617,0.000
1587066418.780,-91.309,-69.336,-400.391,-67.383,0.000
1587066418.784,-49.805,-149.414,-517.090,-47.852,0.000
1587066418.788,-11.230,-144.531,-515.137,-20.996,0.000
1587066418.792,-32.715,-25.391,-404.785,-36.133,0.000
1587066418.796,-62.500,-17.090,-419.434,-62.012,0.000
1587066418.800,-29.297,-247.559,-592.285,-34.668,0.000
1587066418.803,1.953,-90.332,-449.707,-18.066,0.000
1587066418.807,4.395,95.703,-318.848,-20.508,0.000
1587066418.811,-48.828,-19.043,-452.148,-31.738,0.000
1587066418.815,-73.242,-54.199,-453.125,-45.898,0.000
1587066418.819,-33.203,83.984,-282.227,-42.480,0.000
1587066418.823,-11.230,117.188,-259.766,-35.645,0.000
1587066418.827,-37.109,-23.926,-398.438,-47.363,0.000
1587066418.831,-62.988,-100.098,-445.801,-58.105,0.000
1587066418.835,-37.109,-83.496,-428.711,-37.109,0.000
1587066418.839,-6.348,-22.949,-412.598,-9.277,0.000
1587066418.843,-18.555,-135.254,-494.141,-12.207,0.000
1587066418.846,-59.082,-259.277,-541.016,-30.762,0.000
1587066418.850,-62.988,3.418,-388.184,-49.805,0.000
1587066418.854,-12.207,27.832,-365.234,-27.344,0.000
1587066418.858,-22.949,-51.758,-450.684,-18.555,0.000
1587066418.862,-63.477,-78.125,-482.422,-44.434,0.000
1587066418.866,-64.453,-10.254,-358.398,-57.617,0.000
1587066418.870,-23.438,129.883,-156.738,-23.926,0.000
1587066418.874,3.906,20.020,-328.125,-1.465,0.000
1587066418.878,-35.156,-60.059,-444.336,-38.086,0.000
1587066418.882,-50.293,-82.520,-414.551,-45.410,0.000
1587066418.885,-15.625,-58.594,-426.758,-21.973,0.000
1587066418.889,5.859,-136.719,-523.926,2.441,0.000
1587066418.893,-41.016,-37.109,-412.598,-31.738,0.000
1587066418.897,-77.148,76.172,-332.031,-64.941,0.000
1587066418.901,-35.645,2.930,-389.160,-39.551,0.000
1587066418.905,2.441,82.520,-235.352,-22.461,0.000
1587066418.909,-20.508,85.449,-251.465,-23.438,0.000
1587066418.913,-58.105,-44.922,-406.250,-42.969,0.000
1587066418.917,-43.457,-83.008,-447.266,-41.992,0.000
1587066418.921,-5.371,-43.457,-390.625,-14.648,0.000
1587066418.925,-13.672,29.297,-323.242,-25.391,0.000
1587066418.928,-45.410,-68.848,-425.293,-44.922,0.000
1587066418.932,-37.598,-212.402,-530.273,-29.297,0.000
1587066418.936,3.906,-208.984,-499.512,-4.883,0.000
1587066418.940,6.348,63.965,-317.871,-23.438,0.000
1587066418.944,-32.715,41.016,-358.887,-46.875,0.000
1587066418.948,-54.199,-139.160,-514.160,-46.875,0.000
1587066418.952,-34.668,26.855,-313.965,-30.762,0.000
1587066418.956,-25.391,141.113,-114.746,-25.391,0.000
1587066418.960,-40.527,-7.812,-329.590,-38.574,0.000
1587066418.964,-48.828,-176.758,-551.270,-38.086,0.000
1587066418.968,-33.691,-43.945,-398.926,-37.109,0.000
1587066418.971,-5.859,68.848,-272.949,-25.391,0.000
1587066418.975,-17.090,-133.301,-468.262,-10.254,0.000
1587066418.979,-53.711,-263.672,-556.152,-26.367,0.000
1587066418.983,-44.922,-103.516,-433.105,-47.852,0.000
1587066418.987,-12.695,86.914,-308.594,-38.086,0.000
1587066418.991,-21.484,22.461,-351.562,-15.137,0.000
1587066418.995,-35.645,-330.078,-646.973,-12.207,0.000
1587066418.999,-52.246,-152.832,-534.180,-51.758,0.000
1587066419.003,-34.668,161.133,-256.348,-33.203,0.000
1587066419.007,-12.207,42.969,-348.633,1.465,0.000
1587066419.010,-45.898,-94.727,-444.824,-11.719,0.000
1587066419.014,-72.266,-48.828,-392.090,-33.203,0.000
1587066419.018,-39.062,55.176,-312.988,-28.320,0.000
1587066419.022,4.395,-85.938,-438.965,5.859,0.000
1587066419.026,-16.113,-233.398,-515.625,2.930,0.000
1587066419.030,-69.336,5.859,-374.023,-44.434,0.000
1587066419.034,-42.969,65.918,-390.625,-42.969,0.000
1587066419.038,19.043,-30.273,-355.957,-15.625,0.000
1587066419.042,-14.648,-66.406,-399.902,-20.508,0.000
1587066419.046,-65.918,-77.637,-479.980,-59.082,0.000
1587066419.050,-43.945,2.441,-383.789,-64.941,0.000
1587066419.053,-12.695,-33.691,-446.777,-28.320,0.000
1587066419.057,-22.461,-6.836,-395.020,-24.902,0.000
1587066419.061,-62.988,23.926,-334.473,-52.734,0.000
1587066419.065,-59.082,-68.359,-430.664,-47.852,0.000
1587066419.069,-5.859,-152.344,-500.488,-6.836,0.000
1587066419.073,-9.277,-34.668,-395.020,-15.137,0.000
1587066419.077,-56.152,76.660,-331.055,-53.711,0.000
1587066419.081,-61.035,-56.152,-445.801,-55.176,0.000
1587066419.085,-25.391,-229.492,-560.059,-21.973,0.000
1587066419.089,-12.207,-0.977,-367.188,-19.043,0.000
1587066419.093,-41.016,67.871,-333.008,-39.551,0.000
1587066419.096,-66.895,-154.785,-535.156,-43.945,0.000
1587066419.100,-45.410,-90.332,-472.168,-40.527,0.000
1587066419.104,-35.156,108.887,-264.648,-36.621,0.000
1587066419.108,-54.688,82.520,-311.523,-37.109,0.000
1587066419.112,-68.848,-107.422,-489.746,-47.852,0.000
1587066419.116,-59.082,-160.645,-499.023,-45.410,0.000
1587066419.120,-11.719,-32.227,-399.414,-18.555,0.000
1587066419.124,-6.836,75.195,-341.797,-21.484,0.000
1587066419.128,-44.434,-106.445,-469.238,-25.391,0.000
1587066419.132,-49.316,-248.047,-525.391,-22.949,0.000
1587066419.135,-23.926,15.625,-340.332,-28.320,0.000
1587066419.139,-31.250,153.809,-258.301,-19.043,0.000
1587066419.143,-52.734,-81.055,-482.910,-25.391,0.000
1587066419.147,-73.730,-133.301,-489.258,-57.129,0.000
1587066419.151,-58.105,35.645,-354.004,-58.594,0.000
1587066419.155,-15.137,32.715,-369.629,-30.273,0.000
1587066419.159,-25.391,-91.309,-500.977,-36.133,0.000
1587066419.163,-54.688,-237.793,-618.164,-53.711,0.000
1587066419.167,-50.293,-95.215,-452.148,-48.828,0.000
1587066419.171,-24.414,83.496,-294.434,-24.902,0.000
1587066419.175,7.812,-179.199,-528.320,6.836,0.000
1587066419.178,-50.293,-98.633,-449.707,-41.016,0.000
1587066419.182,-76.172,84.961,-343.750,-78.125,0.000
1587066419.186,-24.414,11.719,-400.879,-43.457,0.000
1587066419.190,-26.855,-48.828,-427.246,-27.344,0.000
1587066419.194,-68.848,-27.832,-407.227,-51.270,0.000
1587066419.198,-77.637,-5.371,-396.484,-59.082,0.000
1587066419.202,-36.621,-28.809,-404.785,-30.273,0.000
1587066419.206,-9.277,-8.789,-354.492,-5.859,0.000
1587066419.210,-33.691,-113.770,-487.793,-19.043,0.000
1587066419.214,-56.641,-141.113,-532.715,-49.316,0.000
1587066419.218,-28.320,-141.602,-500.000,-26.367,0.000
1587066419.221,0.977,-114.258,-419.922,0.488,0.000
1587066419.225,-47.852,115.234,-277.832,-37.598,0.000
1587066419.229,-78.613,-48.340,-466.797,-55.176,0.000
1587066419.233,-61.035,-151.855,-560.547,-47.852,0.000
1587066419.237,-38.086,50.293,-336.426,-42.969,0.000
1587066419.241,-48.828,94.727,-296.387,-38.086,0.000
1587066419.245,-77.637,-37.598,-387.695,-60.059,0.000
1587066419.249,-58.594,-189.941,-560.547,-67.383,0.000
1587066419.253,-24.414,-48.828,-425.781,-46.875,0.000
1587066419.257,-18.555,16.602,-354.492,-33.203,0.000
1587066419.260,-39.551,-150.391,-518.555,-39.551,0.000
1587066419.264,-44.922,-337.402,-677.246,-31.738,0.000
1587066419.268,-28.809,-73.730,-433.594,-38.574,0.000
1587066419.272,-16.602,119.629,-300.293,-36.621,0.000
1587066419.276,-39.062,-55.176,-485.840,-43.457,0.000
1587066419.280,-82.520,-100.098,-477.539,-67.383,0.000
1587066419.284,-77.637,72.266,-321.289,-70.312,0.000
1587066419.288,-36.621,118.164,-266.113,-55.664,0.000
1587066419.292,-33.691,-29.297,-410.156,-43.457,0.000
1587066419.296,-69.336,-75.195,-448.242,-62.500,0.000
1587066419.300,-68.848,-30.762,-409.180,-63.965,0.000
1587066419.303,-18.066,-28.320,-399.902,-28.320,0.000
1587066419.307,-8.301,-130.371,-454.590,-8.789,0.000
1587066419.311,-49.805,-277.832,-563.477,-20.508,0.000
1587066419.315,-82.031,-12.207,-398.926,-64.941,0.000
1587066419.319,-35.156,125.977,-263.184,-42.969,0.000
1587066419.323,3.418,13.184,-344.727,-14.160,0.000
1587066419.327,-45.410,-31.738,-388.672,-40.527,0.000
1587066419.331,-54.688,-118.164,-469.238,-58.594,0.000
1587066419.335,-46.387,17.578,-332.031,-56.641,0.000
1587066419.339,-38.086,14.648,-370.117,-27.344,0.000
1587066419.343,-39.551,-47.363,-434.082,-27.344,0.000
1587066419.346,-56.641,-99.121,-448.242,-50.781,0.000
1587066419.350,-44.922,-176.270,-526.855,-45.410,0.000
1587066419.354,-13.184,-214.844,-575.684,-12.695,0.000
1587066419.358,-30.762,-9.766,-384.277,-30.762,0.000
1587066419.362,-78.125,102.051,-304.199,-68.359,0.000
1587066419.366,-68.848,-42.480,-445.801,-53.711,0.000
1587066419.370,-26.855,-32.227,-355.469,-29.785,0.000
1587066419.374,-25.879,72.754,-285.645,-33.203,0.000
1587066419.378,-63.477,7.324,-356.934,-55.664,0.000
1587066419.382,-82.520,-108.887,-442.383,-58.594,0.000
1587066419.385,-45.410,-66.406,-386.230,-29.297,0.000
1587066419.389,-20.508,-29.785,-367.676,-17.578,0.000
1587066419.393,-53.223,-4.883,-363.281,-42.480,0.000
1587066419.397,-56.152,-179.688,-512.695,-42.969,0.000
1587066419.401,-28.320,-208.496,-449.707,-25.391,0.000
1587066419.405,-17.090,66.895,-278.320,-23.926,0.000
1587066419.409,-36.133,65.918,-336.426,-34.668,0.000
1587066419.413,-56.641,-124.512,-466.309,-36.621,0.000
1587066419.417,-23.926,-132.324,-481.445,-15.625,0.000
1587066419.421,-8.301,115.234,-236.328,-20.508,0.000
1587066419.425,-36.133,93.262,-300.781,-35.156,0.000
1587066419.428,-71.777,-99.121,-474.121,-51.270,0.000
1587066419.432,-74.219,-54.688,-402.832,-68.359,0.000
1587066419.436,-51.758,97.168,-246.094,-57.129,0.000
1587066419.440,-33.691,37.598,-303.711,-32.715,0.000
1587066419.444,-51.758,-288.086,-639.648,-34.180,0.000
1587066419.448,-86.426,-255.371,-595.215,-69.336,0.000
1587066419.452,-56.152,-0.488,-337.402,-72.266,0.000
1587066419.456,-39.062,105.469,-223.145,-50.293,0.000
1587066419.460,-46.387,-198.242,-538.086,-26.855,0.000
1587066419.464,-69.824,-153.320,-529.297,-58.594,0.000
1587066419.468,-63.965,89.355,-287.598,-70.801,0.000
1587066419.471,-29.297,60.547,-292.480,-23.926,0.000
1587066419.475,-28.809,-1.953,-355.957,-19.531,0.000
1587066419.479,-54.199,-31.250,-369.629,-41.504,0.000
1587066419.483,-56.152,-21.973,-385.742,-44.922,0.000
1587066419.487,-6.836,2.930,-389.648,-22.949,0.000
1587066419.491,-0.488,-83.984,-441.895,-5.371,0.000
1587066419.495,-62.500,-64.941,-387.695,-31.738,0.000
1587066419.499,-71.289,25.391,-369.629,-44.922,0.000
1587066419.503,-11.230,-97.656,-459.961,-7.812,0.000
1587066419.507,2.930,-256.836,-529.785,17.090,0.000
1587066419.510,-53.223,-108.398,-468.262,-26.367,0.000
1587066419.514,-63.477,-16.602,-433.105,-54.199,0.000
1587066419.518,-14.160,-54.688,-456.055,-30.762,0.000
1587066419.522,2.930,32.715,-393.066,-12.207,0.000
1587066419.526,-25.879,58.594,-362.305,-24.902,0.000
1587066419.530,-52.734,-16.113,-379.883,-41.992,0.000
1587066419.534,-28.809,-96.191,-485.840,-20.996,0.000
1587066419.538,4.883,-76.172,-448.730,4.883,0.000
1587066419.542,-12.695,16.602,-363.281,-15.625,0.000
1587066419.546,-46.387,-26.855,-435.059,-41.016,0.000
1587066419.550,-33.203,-290.527,-645.508,-17.090,0.000
1587066419.553,-11.719,-19.043,-380.859,-7.812,0.000
1587066419.557,-22.461,241.211,-203.613,-16.602,0.000
1587066419.561,-45.410,-29.297,-467.285,-25.879,0.000
1587066419.565,-48.828,-121.582,-490.234,-43.945,0.000
1587066419.569,-14.648,102.051,-281.250,-40.527,0.000
1587066419.573,0.488,137.695,-250.488,-21.484,0.000
1587066419.577,-42.480,-43.945,-433.594,-37.598,0.000
1587066419.581,-62.988,-134.766,-507.812,-51.758,0.000
1587066419.585,-34.180,-82.031,-448.730,-33.203,0.000
1587066419.589,-10.254,42.480,-336.914,-29.297,0.000
1587066419.593,-17.090,-39.551,-413.574,-30.762,0.000
1587066419.596,-57.129,-165.527,-487.305,-39.551,0.000
1587066419.600,-61.035,-35.645,-433.105,-54.688,0.000
1587066419.604,-24.902,23.926,-409.668,-38.086,0.000
1587066419.608,-21.484,-96.191,-479.980,-23.438,0.000
1587066419.612,-56.152,-139.160,-480.957,-49.316,0.000
1587066419.616,-55.176,72.266,-356.934,-67.383,0.000
1587066419.620,-20.508,95.703,-361.328,-28.809,0.000
1587066419.624,-22.461,-9.766,-445.312,-14.160,0.000
1587066419.628,-60.547,2.930,-388.672,-56.152,0.000
1587066419.632,-72.266,-72.754,-443.848,-60.059,0.000
1587066419.635,-40.039,-107.910,-479.980,-32.715,0.000
1587066419.639,6.348,-202.637,-597.656,-5.371,0.000
1587066419.643,-30.273,-68.359,-471.680,-29.297,0.000
1587066419.647,-79.102,95.703,-338.379,-60.547,0.000
1587066419.651,-45.410,0.000,-414.062,-40.527,0.000
1587066419.655,-12.695,26.855,-308.594,-19.531,0.000
1587066419.659,-24.414,84.473,-306.152,-36.133,0.000
1587066419.663,-66.406,1.953,-396.973,-55.176,0.000
1587066419.667,-64.453,-88.379,-472.656,-45.898,0.000
1587066419.671,-27.344,18.066,-328.125,-37.109,0.000
1587066419.675,-20.996,58.105,-303.711,-30.762,0.000
1587066419.678,-53.223,-125.000,-456.543,-39.551,0.000
1587066419.682,-48.340,-162.109,-476.074,-41.992,0.000
1587066419.686,-19.043,-51.758,-391.602,-13.184,0.000
1587066419.690,-18.555,109.375,-257.812,-18.066,0.000
1587066419.694,-46.875,34.180,-318.848,-45.410,0.000
1587066419.698,-53.711,-240.723,-560.059,-39.551,0.000
1587066419.702,-32.715,-181.641,-434.082,-24.902,0.000
1587066419.706,-32.227,139.648,-243.164,-40.527,0.000
1587066419.710,-45.898,69.824,-352.051,-56.152,0.000
1587066419.714,-59.570,-182.129,-566.406,-55.176,0.000
1587066419.718,-46.387,-86.426,-482.910,-39.551,0.000
1587066419.721,-25.879,120.605,-243.164,-23.438,0.000
1587066419.725,-34.668,-32.715,-387.695,-26.855,0.000
1587066419.729,-64.941,-317.871,-647.461,-31.250,0.000
1587066419.733,-59.570,-109.375,-456.055,-41.504,0.000
1587066419.737,-13.184,155.273,-262.695,-27.344,0.000
1587066419.741,-25.391,-29.297,-454.590,-11.719,0.000
1587066419.745,-77.637,-108.398,-445.312,-41.992,0.000
1587066419.749,-80.566,7.812,-382.812,-66.406,0.000
1587066419.753,-48.340,90.820,-304.688,-37.109,0.000
1587066419.757,-30.273,42.969,-312.988,-8.301,0.000
1587066419.760,-48.340,-62.988,-409.180,-32.715,0.000
1587066419.764,-78.613,-59.082,-407.227,-56.152,0.000
1587066419.768,-52.734,-1.465,-350.586,-41.992,0.000
1587066419.772,-8.789,-108.887,-434.082,-6.348,0.000
1587066419.776,-36.621,-214.844,-474.121,-18.066,0.000
1587066419.780,-74.219,-8.789,-385.742,-77.637,0.000
1587066419.784,-50.293,51.270,-380.371,-68.359,0.000
1587066419.788,-27.832,-52.246,-399.902,-22.949,0.000
1587066419.792,-43.457,-60.059,-418.457,-36.621,0.000
1587066419.796,-88.379,-45.410,-425.781,-75.195,0.000
1587066419.800,-83.008,-102.539,-477.539,-75.684,0.000
1587066419.803,-41.992,-13.184,-410.645,-46.387,0.000
1587066419.807,-38.086,70.801,-328.125,-39.062,0.000
1587066419.811,-77.148,0.488,-380.371,-62.012,0.000
1587066419.815,-66.406,-61.523,-414.551,-71.289,0.000
1587066419.819,-1.953,-163.086,-511.719,-30.273,0.000
1587066419.823,-4.883,-34.668,-420.410,-16.113,0.000
1587066419.827,-58.105,98.145,-324.707,-49.805,0.000
1587066419.831,-68.848,-56.152,-440.918,-52.734,0.000
1587066419.835,-28.320,-252.930,-592.285,-11.230,0.000
1587066419.839,-19.531,52.246,-282.227,-14.648,0.000
1587066419.843,-39.551,182.617,-198.730,-40.527,0.000
1587066419.846,-56.641,-77.148,-460.449,-42.480,0.000
1587066419.850,-41.992,-66.895,-416.016,-35.156,0.000
1587066419.854,-11.230,33.691,-346.680,-15.137,0.000
1587066419.858,-9.766,3.418,-343.262,-5.371,0.000
1587066419.862,-30.762,-73.242,-439.941,-35.156,0.000
1587066419.866,-43.945,-160.156,-536.133,-47.363,0.000
1587066419.870,-23.438,-14.648,-381.836,-28.320,0.000
1587066419.874,-27.344,114.258,-310.547,-27.344,0.000
1587066419.878,-58.105,-101.562,-467.285,-40.039,0.000
1587066419.882,-48.828,-322.266,-601.074,-33.203,0.000
1587066419.885,-20.996,-57.617,-449.707,-32.715,0.000
1587066419.889,-28.809,140.625,-288.086,-37.598,0.000
1587066419.893,-53.223,-37.109,-451.172,-48.340,0.000
1587066419.897,-64.453,-53.223,-462.402,-64.941,0.000
1587066419.901,-48.340,88.379,-281.250,-56.641,0.000
1587066419.905,-20.020,81.055,-238.281,-23.926,0.000
1587066419.909,-18.066,-110.352,-467.773,-19.043,0.000
1587066419.913,-44.434,-180.664,-504.395,-52.734,0.000
1587066419.917,-61.035,-72.266,-409.180,-56.641,0.000
1587066419.921,-17.578,-28.320,-408.203,-18.555,0.000
1587066419.925,-1.465,-190.430,-555.176,4.395,0.000
1587066419.928,-69.336,-105.469,-450.195,-49.805,0.000
1587066419.932,-93.750,56.641,-331.543,-88.867,0.000
1587066419.936,-49.316,32.227,-339.355,-51.270,0.000
1587066419.940,-18.066,7.324,-324.707,-25.391,0.000
1587066419.944,-48.340,-31.250,-365.234,-49.805,0.000
1587066419.948,-46.387,-96.191,-424.316,-63.477,0.000
1587066419.952,-44.434,-70.312,-393.066,-40.039,0.000
1587066419.956,-44.434,11.230,-303.223,-22.949,0.000
1587066419.960,-54.199,-69.824,-378.906,-31.738,0.000
1587066419.964,-71.777,-110.840,-454.102,-41.016,0.000
1587066419.968,-33.203,-163.086,-525.879,-24.414,0.000
1587066419.971,10.742,-229.492,-529.297,-0.977,0.000
1587066419.975,-0.977,-7.324,-396.484,-22.949,0.000
1587066419.979,-51.270,-78.125,-511.230,-36.621,0.000
1587066419.983,-59.570,-124.512,-522.461,-34.668,0.000
1587066419.987,-27.832,103.027,-257.812,-27.832,0.000
1587066419.991,-29.297,111.816,-298.340,-20.996,0.000
1587066419.995,-59.570,-18.066,-386.719,-41.992,0.000
1587066419.999,-57.129,-87.402,-458.984,-43.457,0.000
1587066420.003,-30.273,32.227,-332.031,-25.879,0.000
1587066420.007,-12.207,5.859,-332.520,-6.836,0.000
1587066420.010,-38.086,-122.559,-467.285,-20.996,0.000
1587066420.014,-58.594,-276.855,-609.863,-27.344,0.000
1587066420.018,-48.340,-81.543,-414.062,-25.879,0.000
1587066420.022,-24.902,176.270,-170.410,-22.949,0.000
1587066420.026,-7.324,2.441,-363.281,-16.113,0.000
1587066420.030,-31.738,-181.152,-528.809,-29.785,0.000
1587066420.034,-45.410,-48.340,-391.602,-32.227,0.000
1587066420.038,-26.855,116.699,-230.957,-19.043,0.000
1587066420.042,-36.621,2.930,-358.398,-26.367,0.000
1587066420.046,-76.660,-101.562,-416.992,-54.199,0.000
1587066420.050,-60.059,-89.844,-422.852,-55.664,0.000
1587066420.053,-25.391,-62.500,-404.785,-29.785,0.000
1587066420.057,-19.043,-126.953,-456.543,-8.789,0.000
1587066420.061,-43.457,-253.906,-541.992,-25.879,0.000
1587066420.065,-75.195,-17.090,-393.066,-68.359,0.000
1587066420.069,-41.504,56.152,-348.145,-43.457,0.000
1587066420.073,5.371,-77.148,-445.312,-13.184,0.000
1587066420.077,-41.016,-40.039,-401.855,-45.898,0.000
1587066420.081,-84.473,10.254,-346.191,-73.242,0.000
1587066420.085,-49.316,-9.277,-345.703,-44.434,0.000
1587066420.089,-1.953,-80.566,-432.129,-6.836,0.000
1587066420.093,-34.180,-15.625,-369.141,-38.574,0.000
1587066420.096,-97.168,-45.410,-372.559,-73.730,0.000
1587066420.100,-65.918,-148.926,-496.582,-51.758,0.000
1587066420.104,-13.672,-233.398,-588.867,-6.348,0.000
1587066420.108,-36.133,-50.781,-422.363,-18.555,0.000
1587066420.112,-78.125,103.027,-335.449,-65.430,0.000
1587066420.116,-63.477,-49.316,-478.516,-66.406,0.000
1587066420.120,-20.996,-29.297,-369.141,-39.062,0.000
1587066420.124,-24.414,76.660,-305.664,-39.551,0.000
1587066420.128,-73.730,28.809,-344.238,-62.500,0.000
1587066420.132,-81.055,-96.680,-460.938,-62.500,0.000
1587066420.135,-50.781,-52.734,-402.344,-50.293,0.000
1587066420.139,-34.180,62.500,-294.434,-39.062,0.000
1587066420.143,-46.875,-25.879,-398.926,-45.898,0.000
1587066420.147,-39.551,-236.328,-568.359,-46.875,0.000
1587066420.151,-15.625,-218.750,-530.273,-17.090,0.000
1587066420.155,-31.250,90.820,-283.203,-21.973,0.000
1587066420.159,-58.105,151.855,-310.547,-50.293,0.000
1587066420.163,-70.801,-126.465,-512.207,-62.500,0.000
1587066420.167,-51.270,-160.156,-485.840,-52.246,0.000
1587066420.171,-26.367,146.973,-230.469,-38.086,0.000
1587066420.175,-33.691,138.184,-257.324,-35.156,0.000
1587066420.178,-53.223,-121.094,-488.770,-35.645,0.000
1587066420.182,-51.758,-59.570,-431.641,-44.922,0.000
1587066420.186,-37.598,126.465,-249.023,-41.992,0.000
1587066420.190,-24.902,96.191,-279.785,-25.391,0.000
1587066420.194,-30.762,-181.152,-568.848,-20.996,0.000
1587066420.198,-51.270,-167.969,-532.715,-44.922,0.000
1587066420.202,-49.805,111.816,-300.781,-42.969,0.000
1587066420.206,-17.578,44.434,-373.535,-3.906,0.000
1587066420.210,-17.090,-258.789,-612.793,6.348,0.000
1587066420.214,-49.805,-117.188,-503.418,-35.156,0.000
1587066420.218,-49.805,101.562,-333.984,-43.457,0.000
1587066420.221,-19.043,37.109,-395.508,-9.766,0.000
1587066420.225,-24.414,-38.574,-434.082,-6.348,0.000
1587066420.229,-69.824,-18.555,-395.508,-38.086,0.000
1587066420.233,-63.965,40.039,-368.652,-49.805,0.000
1587066420.237,-10.742,22.461,-397.461,-17.090,0.000
1587066420.241,-18.555,-100.586,-479.980,-5.371,0.000
1587066420.245,-74.707,-124.512,-447.266,-46.387,0.000
1587066420.249,-86.426,2.441,-389.648,-68.359,0.000
1587066420.253,-36.621,-52.734,-437.012,-30.273,0.000
1587066420.257,-18.066,-175.293,-465.332,6.836,0.000
1587066420.260,-60.059,-65.918,-469.238,-22.949,0.000
1587066420.264,-75.684,-57.129,-535.645,-48.340,0.000
1587066420.268,-49.805,-14.648,-446.777,-29.785,0.000
1587066420.272,-18.555,135.742,-278.320,-27.344,0.000
1587066420.276,-34.668,120.605,-290.039,-38.086,0.000
1587066420.280,-79.102,-23.926,-423.828,-38.574,0.000
1587066420.284,-57.617,-65.918,-460.938,-26.855,0.000
1587066420.288,-11.719,-27.832,-389.648,-9.277,0.000
1587066420.292,-25.391,8.789,-360.352,-16.602,0.000
1587066420.296,-54.199,-72.266,-424.805,-37.109,0.000
1587066420.300,-41.016,-333.496,-636.719,-14.648,0.000
1587066420.303,-32.227,-10.742,-330.566,-13.672,0.000
1587066420.307,-43.457,215.332,-116.211,-27.832,0.000
1587066420.311,-52.246,-67.871,-398.926,-27.344,0.000
1587066420.315,-56.641,-91.309,-417.969,-33.203,0.000
1587066420.319,-47.852,68.359,-268.066,-25.879,0.000
1587066420.323,-14.648,13.672,-340.820,-1.465,0.000
1587066420.327,-28.320,-92.285,-469.238,-10.254,0.000
1587066420.331,-62.012,-76.660,-429.688,-42.969,0.000
1587066420.335,-36.621,-62.012,-400.391,-24.414,0.000
1587066420.339,-4.395,61.035,-308.594,-0.488,0.000
1587066420.343,-19.043,-44.922,-412.109,-5.859,0.000
1587066420.346,-47.852,-270.020,-564.453,-20.020,0.000
1587066420.350,-46.387,10.742,-374.023,-44.434,0.000
1587066420.354,-4.883,74.707,-333.496,-15.137,0.000
1587066420.358,-2.930,-52.246,-459.961,4.395,0.000
1587066420.362,-52.734,-30.273,-431.641,-36.621,0.000
1587066420.366,-52.734,30.762,-344.727,-47.852,0.000
1587066420.370,-4.395,88.379,-278.809,-6.348,0.000
1587066420.374,3.418,17.578,-383.301,1.953,0.000
1587066420.378,-36.133,-101.074,-483.887,-23.438,0.000
1587066420.382,-52.734,-145.020,-491.211,-34.668,0.000
1587066420.385,-10.742,-71.289,-445.801,-10.742,0.000
1587066420.389,0.488,-160.156,-547.363,15.625,0.000
1587066420.393,-63.965,-81.543,-468.262,-25.879,0.000
1587066420.397,-103.027,66.895,-363.770,-74.707,0.000
1587066420.401,-65.430,48.340,-347.168,-55.664,0.000
1587066420.405,-27.344,50.293,-286.133,-23.926,0.000
1587066420.409,-40.527,67.871,-294.434,-25.391,0.000
1587066420.413,-71.777,13.672,-366.699,-49.316,0.000
1587066420.417,-59.570,-77.637,-473.145,-40.039,0.000
1587066420.421,-22.949,4.395,-332.520,-18.555,0.000
1587066420.425,-17.090,80.078,-276.855,-19.531,0.000
1587066420.428,-49.316,-130.859,-484.375,-33.691,0.000
1587066420.432,-58.594,-182.617,-509.277,-41.504,0.000
1587066420.436,-24.414,-62.988,-421.875,-21.973,0.000
1587066420.440,-16.113,-10.742,-382.324,-19.531,0.000
1587066420.444,-37.109,33.203,-359.375,-50.781,0.000
1587066420.448,-35.645,-211.914,-559.570,-38.574,0.000
1587066420.452,-22.949,-232.422,-473.633,-4.395,0.000
1587066420.456,-21.484,176.758,-136.230,-11.230,0.000
1587066420.460,-27.832,141.113,-210.938,-34.180,0.000
1587066420.464,-49.805,-135.742,-498.535,-46.387,0.000
1587066420.468,-46.875,-31.250,-383.789,-45.410,0.000
1587066420.471,-13.672,95.215,-229.004,-25.391,0.000
1587066420.475,-8.301,-83.984,-419.922,-2.930,0.000
1587066420.479,-40.039,-316.895,-630.371,1.465,0.000
1587066420.483,-62.988,-121.582,-456.543,-32.715,0.000
1587066420.487,-28.320,172.852,-190.918,-36.621,0.000
1587066420.491,-2.930,53.711,-288.086,1.465,0.000
1587066420.495,-47.363,-196.777,-474.121,-13.672,0.000
1587066420.499,-72.754,-167.969,-492.188,-40.527,0.000
1587066420.503,-31.250,57.129,-306.641,-26.367,0.000
1587066420.507,-25.879,63.477,-308.594,-18.555,0.000
1587066420.510,-58.105,-56.152,-407.715,-32.715,0.000
1587066420.514,-73.730,-54.688,-422.363,-52.246,0.000
1587066420.518,-62.012,42.480,-330.078,-53.223,0.000
1587066420.522,-25.879,-64.941,-378.906,-15.137,0.000
1587066420.526,-29.785,-252.441,-504.883,-9.277,0.000
1587066420.530,-72.266,-61.523,-397.949,-54.688,0.000
1587066420.534,-54.688,41.016,-376.953,-52.734,0.000
1587066420.538,-7.812,-78.125,-429.688,-11.719,0.000
1587066420.542,-17.578,-119.629,-429.688,-1.465,0.000
1587066420.546,-54.199,-35.156,-394.043,-42.480,0.000
1587066420.550,-40.039,-9.277,-383.789,-57.617,0.000
1587066420.553,-7.812,-63.965,-426.758,-14.160,0.000
1587066420.557,-10.254,-65.918,-433.105,-2.441,0.000
1587066420.561,-56.641,-2.930,-346.191,-37.598,0.000
1587066420.565,-77.637,-23.438,-379.395,-49.805,0.000
1587066420.569,-28.320,-135.254,-502.441,-18.555,0.000
1587066420.573,-10.742,-76.660,-433.105,-1.953,0.000
1587066420.577,-60.547,49.805,-309.082,-33.203,0.000
1587066420.581,-77.148,-53.711,-376.953,-60.547,0.000
1587066420.585,-33.203,-270.020,-545.898,-28.320,0.000
1587066420.589,-17.090,-18.066,-345.215,-17.090,0.000
1587066420.593,-36.133,108.398,-303.223,-36.621,0.000
1587066420.596,-48.340,-93.262,-470.215,-47.363,0.000
1587066420.600,-36.133,-72.754,-386.230,-40.039,0.000
1587066420.604,4.883,75.195,-245.605,-10.742,0.000
1587066420.608,-7.324,69.336,-277.832,-7.324,0.000
1587066420.612,-53.223,-114.258,-458.496,-30.762,0.000
1587066420.616,-44.434,-212.402,-526.855,-36.621,0.000
1587066420.620,-11.719,-111.816,-405.762,-14.648,0.000
1587066420.624,-12.695,1.953,-333.008,-7.324,0.000
1587066420.628,-37.109,-127.441,-479.980,-22.949,0.000
1587066420.632,-46.387,-333.496,-607.422,-23.438,0.000
1587066420.635,-39.062,-68.359,-419.434,-33.691,0.000
1587066420.639,-14.160,131.836,-293.945,-36.621,0.000
1587066420.643,-29.297,18.555,-393.555,-41.504,0.000
1587066420.647,-73.242,-48.828,-437.500,-58.105,0.000
1587066420.651,-59.082,9.766,-360.352,-48.340,0.000
1587066420.655,-13.672,29.785,-326.172,-26.367,0.000
1587066420.659,-23.438,-84.961,-479.492,-29.785,0.000
1587066420.663,-60.547,-170.898,-510.254,-54.688,0.000
1587066420.667,-54.199,-85.449,-410.156,-55.664,0.000
1587066420.671,-20.020,48.340,-336.426,-23.926,0.000
1587066420.675,-1.465,-191.406,-547.852,-0.488,0.000
1587066420.678,-45.898,-136.719,-467.773,-41.504,0.000
1587066420.682,-67.383,56.641,-333.984,-68.359,0.000
1587066420.686,-32.715,42.969,-333.496,-41.504,0.000
1587066420.690,-16.113,5.371,-348.633,-24.414,0.000
1587066420.694,-41.504,-11.230,-388.184,-43.457,0.000
1587066420.698,-69.824,-17.578,-387.207,-69.336,0.000
1587066420.702,-48.340,-32.715,-401.855,-49.805,0.000
1587066420.706,-17.578,-43.945,-388.184,-16.602,0.000
1587066420.710,-32.227,-182.129,-510.742,-19.043,0.000
1587066420.714,-64.941,-144.043,-498.535,-56.152,0.000
1587066420.718,-40.527,-105.957,-463.379,-39.062,0.000
1587066420.721,-0.977,-147.461,-444.824,12.207,0.000
1587066420.725,-32.227,40.039,-353.027,-21.973,0.000
1587066420.729,-53.223,-128.906,-519.043,-48.340,0.000
1587066420.733,-50.293,-173.828,-540.527,-44.922,0.000
1587066420.737,-26.367,87.891,-269.531,-40.039,0.000
1587066420.741,-31.250,151.367,-148.926,-33.691,0.000
1587066420.745,-62.500,-30.273,-364.746,-44.922,0.000
1587066420.749,-63.965,-173.828,-554.688,-48.340,0.000
1587066420.753,-43.457,9.277,-331.543,-39.551,0.000
1587066420.757,-18.555,38.574,-281.738,-23.438,0.000
1587066420.760,-49.316,-147.949,-481.934,-32.715,0.000
1587066420.764,-73.242,-347.168,-674.316,-42.480,0.000
1587066420.768,-65.430,-115.723,-432.129,-56.152,0.000
1587066420.772,-48.828,204.102,-156.738,-58.105,0.000
1587066420.776,-52.734,39.551,-337.891,-47.852,0.000
1587066420.780,-72.266,-139.160,-458.008,-53.711,0.000
1587066420.784,-60.059,2.441,-332.520,-53.711,0.000
1587066420.788,-27.832,90.820,-282.715,-22.949,0.000
1587066420.792,-23.926,-61.035,-440.430,-12.207,0.000
1587066420.796,-69.824,-91.797,-412.109,-40.527,0.000
1587066420.800,-60.547,-45.410,-368.652,-48.828,0.000
1587066420.803,-2.441,-16.113,-352.051,-31.738,0.000
1587066420.807,-18.066,-113.770,-439.453,-13.184,0.000
1587066420.811,-50.781,-305.664,-609.863,-20.020,0.000
1587066420.815,-79.590,-35.645,-431.152,-52.734,0.000
1587066420.819,-49.316,83.984,-340.820,-43.945,0.000
1587066420.823,-20.508,-54.199,-441.895,-26.367,0.000
1587066420.827,-60.059,-17.578,-418.457,-46.875,0.000
1587066420.831,-76.660,0.977,-391.602,-65.918,0.000
1587066420.835,-39.062,2.930,-393.066,-38.574,0.000
1587066420.839,-8.301,-42.480,-457.520,-4.395,0.000
1587066420.843,-29.297,-13.184,-403.809,-18.555,0.000
1587066420.846,-64.941,-63.477,-442.383,-41.016,0.000
1587066420.850,-44.434,-147.461,-568.848,-29.297,0.000
1587066420.854,2.441,-116.211,-541.504,7.324,0.000
1587066420.858,-27.344,89.355,-333.496,-15.625,0.000
1587066420.862,-73.242,156.250,-275.391,-55.664,0.000
1587066420.866,-55.664,-23.926,-412.109,-43.457,0.000
1587066420.870,-3.418,-104.492,-479.004,-2.441,0.000
1587066420.874,0.488,82.520,-350.098,-9.277,0.000
1587066420.878,-42.969,94.238,-321.777,-40.527,0.000
1587066420.882,-52.734,-64.453,-485.840,-45.410,0.000
1587066420.885,-35.645,-18.066,-390.137,-35.156,0.000
1587066420.889,-29.297,111.328,-261.230,-30.762,0.000
1587066420.893,-55.176,59.570,-373.535,-38.574,0.000
1587066420.897,-63.965,-154.785,-529.297,-35.156,0.000
1587066420.901,-28.320,-226.074,-498.047,-12.695,0.000
1587066420.905,-15.137,54.688,-347.656,-15.137,0.000
1587066420.909,-18.066,80.078,-375.488,-25.879,0.000
1587066420.913,-46.875,-112.305,-495.117,-39.062,0.000
1587066420.917,-68.848,-108.887,-474.121,-38.574,0.000
1587066420.921,-46.875,124.023,-261.719,-24.902,0.000
1587066420.925,-37.109,114.258,-298.340,-14.648,0.000
1587066420.928,-55.176,-66.895,-468.262,-33.203,0.000
1587066420.932,-57.129,-64.453,-463.379,-50.293,0.000
1587066420.936,-30.273,40.039,-352.051,-36.133,0.000
1587066420.940,-16.602,49.316,-339.844,-15.625,0.000
1587066420.944,-33.203,-203.613,-597.656,-14.648,0.000
1587066420.948,-49.316,-202.637,-591.309,-26.855,0.000
1587066420.952,-43.457,110.840,-330.078,-25.879,0.000
1587066420.956,-18.066,143.066,-296.387,-4.395,0.000
1587066420.960,1.465,-135.254,-528.809,8.301,0.000
1587066420.964,-44.922,-117.676,-516.113,-21.973,0.000
1587066420.968,-55.176,89.355,-317.383,-41.992,0.000
1587066420.971,-25.391,112.305,-283.691,-23.438,0.000
1587066420.975,-33.203,0.977,-368.652,-13.184,0.000
1587066420.979,-48.828,-14.648,-401.855,-22.461,0.000
1587066420.983,-40.527,20.020,-402.344,-35.645,0.000
1587066420.987,-28.320,21.973,-390.137,-41.992,0.000
1587066420.991,-36.621,-66.895,-466.309,-40.039,0.000
1587066420.995,-63.965,-65.430,-442.383,-57.129,0.000
1587066420.999,-62.988,82.520,-335.938,-74.219,0.000
1587066421.003,-25.391,-6.348,-381.836,-43.457,0.000
1587066421.007,-12.207,-189.941,-500.000,0.488,0.000
1587066421.010,-57.129,-17.578,-418.457,-35.645,0.000
1587066421.014,-81.055,62.500,-368.164,-63.477,0.000
1587066421.018,-43.945,-20.020,-441.406,-31.250,0.000
1587066421.022,-12.207,24.902,-368.652,-8.301,0.000
1587066421.026,-30.762,42.969,-315.430,-10.742,0.000
1587066421.030,-57.129,-7.324,-387.207,-34.668,0.000
1587066421.034,-31.738,-72.266,-483.887,-26.367,0.000
1587066421.038,-0.977,-30.273,-410.156,-0.488,0.000
1587066421.042,-12.207,30.762,-347.168,-9.277,0.000
1587066421.046,-33.203,-17.090,-384.277,-27.832,0.000
1587066421.050,-20.020,-257.812,-597.656,-3.906,0.000
1587066421.053,-12.207,-25.391,-377.441,0.488,0.000
1587066421.057,-28.809,200.684,-201.172,-17.578,0.000
1587066421.061,-49.805,-48.340,-430.176,-28.809,0.000
1587066421.065,-60.547,-99.121,-425.293,-40.527,0.000
1587066421.069,-27.344,92.773,-278.320,-19.531,0.000
1587066421.073,-6.348,161.133,-194.824,1.465,0.000
1587066421.077,-24.902,18.555,-299.805,-18.066,0.000
1587066421.081,-48.828,-175.781,-503.418,-34.668,0.000
1587066421.085,-45.410,-153.809,-491.211,-22.949,0.000
1587066421.089,-7.324,-23.438,-389.160,-6.348,0.000
1587066421.093,-13.184,-113.281,-471.680,-8.301,0.000
1587066421.096,-47.852,-297.852,-576.660,-22.949,0.000
1587066421.100,-57.129,-36.133,-395.508,-48.828,0.000
1587066421.104,-27.344,84.473,-311.035,-36.621,0.000
1587066421.108,-28.809,21.973,-357.422,-28.809,0.000
1587066421.112,-68.359,16.113,-365.234,-55.176,0.000
1587066421.116,-61.523,24.902,-358.887,-58.105,0.000
1587066421.120,-22.949,82.031,-237.793,-26.855,0.000
1587066421.124,-13.184,-0.977,-325.684,-3.906,0.000
1587066421.128,-51.270,-49.805,-390.137,-31.738,0.000
1587066421.132,-51.270,-144.531,-473.145,-39.062,0.000
1587066421.135,-20.020,-112.793,-437.988,-20.020,0.000
1587066421.139,-4.395,-182.129,-526.367,5.859,0.000
1587066421.143,-56.641,-101.074,-431.641,-24.902,0.000
1587066421.147,-80.566,79.590,-301.270,-52.246,0.000
1587066421.151,-41.992,-5.859,-370.117,-26.855,0.000
1587066421.155,-28.320,-4.395,-293.945,-22.949,0.000
1587066421.159,-55.664,44.922,-307.617,-45.898,0.000
1587066421.163,-88.867,-20.996,-370.605,-67.383,0.000
1587066421.167,-59.570,-49.805,-403.320,-63.965,0.000
1587066421.171,-22.461,23.438,-318.848,-39.062,0.000
1587066421.175,-11.719,-7.812,-352.539,-27.832,0.000
1587066421.178,-36.621,-123.535,-462.402,-35.645,0.000
1587066421.182,-44.434,-202.148,-541.504,-29.785,0.000
1587066421.186,-4.883,-225.098,-529.785,-2.930,0.000
1587066421.190,-19.531,129.395,-215.820,-28.320,0.000
1587066421.194,-44.434,122.559,-277.344,-48.340,0.000
1587066421.198,-53.223,-148.926,-508.301,-36.621,0.000
1587066421.202,-30.762,-74.707,-420.410,-27.832,0.000
1587066421.206,-17.090,123.047,-257.812,-25.391,0.000
1587066421.210,-41.992,60.547,-310.547,-34.180,0.000
1587066421.214,-52.246,-166.504,-533.203,-38.086,0.000
1587066421.218,-46.875,-33.691,-387.207,-48.340,0.000
1587066421.221,-25.879,127.441,-179.688,-30.273,0.000
1587066421.225,-11.719,-87.402,-424.316,-5.371,0.000
1587066421.229,-38.574,-334.473,-644.531,-25.879,0.000
1587066421.233,-72.754,-146.484,-467.285,-57.617,0.000
1587066421.237,-52.734,178.223,-212.891,-57.129,0.000
1587066421.241,-37.109,108.887,-200.684,-36.133,0.000
1587066421.245,-60.059,-90.332,-338.379,-46.875,0.000
1587066421.249,-61.035,-47.363,-384.277,-61.035,0.000
1587066421.253,-17.578,50.293,-307.129,-33.691,0.000
1587066421.257,8.789,25.391,-301.270,-5.859,0.000
1587066421.260,-29.785,-57.617,-364.258,-32.715,0.000
1587066421.264,-55.176,-41.992,-362.305,-62.988,0.000
1587066421.268,-27.344,27.832,-312.012,-39.551,0.000
1587066421.272,16.602,-104.492,-422.363,-1.465,0.000
1587066421.276,1.953,-291.992,-585.938,-3.906,0.000
1587066421.280,-66.895,-61.035,-430.664,-55.664,0.000
1587066421.284,-61.523,57.129,-345.703,-48.828,0.000
1587066421.288,-22.461,-24.414,-375.488,-3.906,0.000
1587066421.292,-31.738,-83.008,-421.387,-18.066,0.000
1587066421.296,-65.430,-43.457,-401.855,-57.129,0.000
1587066421.300,-60.059,-3.418,-399.414,-52.734,0.000
1587066421.303,-25.879,-62.500,-429.199,-18.555,0.000
1587066421.307,-24.414,14.160,-359.375,-20.020,0.000
1587066421.311,-57.617,25.879,-373.535,-48.340,0.000
1587066421.315,-64.941,-115.723,-483.398,-50.781,0.000
1587066421.319,-21.973,-198.730,-569.824,-25.391,0.000
1587066421.323,5.371,-54.199,-436.035,-15.137,0.000
1587066421.327,-35.645,83.984,-322.754,-37.109,0.000
1587066421.331,-65.430,-67.383,-457.031,-44.922,0.000
1587066421.335,-27.832,-261.230,-584.961,-5.859,0.000
1587066421.339,-1.953,4.883,-332.520,0.977,0.000
1587066421.343,-36.621,118.164,-294.434,-30.762,0.000
1587066421.346,-70.801,-55.176,-444.336,-52.734,0.000
1587066421.350,-61.523,-64.453,-409.180,-45.898,0.000
1587066421.354,-38.086,78.613,-285.645,-32.227,0.000
1587066421.358,-41.992,86.426,-312.500,-35.156,0.000
1587066421.362,-54.199,-115.723,-484.375,-46.875,0.000
1587066421.366,-38.574,-250.000,-549.805,-47.363,0.000
1587066421.370,-25.391,-131.348,-466.309,-28.809,0.000
1587066421.374,-41.016,18.066,-393.066,-36.621,0.000
1587066421.378,-66.406,-113.770,-457.031,-46.875,0.000
1587066421.382,-69.824,-302.246,-569.336,-46.387,0.000
1587066421.385,-57.129,-22.949,-404.785,-66.406,0.000
1587066421.389,-43.945,147.949,-300.781,-58.105,0.000
1587066421.393,-64.453,-13.184,-429.199,-57.617,0.000
1587066421.397,-91.309,-32.227,-413.086,-82.520,0.000
1587066421.401,-68.848,58.594,-306.641,-67.383,0.000
1587066421.405,-30.762,128.418,-189.941,-27.832,0.000
1587066421.409,-34.180,-58.105,-418.945,-31.250,0.000
1587066421.413,-57.129,-201.660,-590.332,-56.641,0.000
1587066421.417,-51.758,-81.055,-466.797,-59.082,0.000
1587066421.421,-21.973,75.195,-311.035,-35.645,0.000
1587066421.425,-10.254,-147.461,-517.090,-0.977,0.000
1587066421.428,-72.754,-152.344,-518.555,-45.898,0.000
1587066421.432,-88.867,-7.812,-423.828,-76.172,0.000
1587066421.436,-35.645,13.184,-394.531,-40.527,0.000
1587066421.440,-0.488,70.801,-307.129,-33.691,0.000
1587066421.444,-37.598,54.688,-328.613,-58.105,0.000
1587066421.448,-96.191,7.812,-404.297,-71.289,0.000
1587066421.452,-61.523,-5.371,-381.348,-47.363,0.000
1587066421.456,-20.508,47.363,-266.113,-26.367,0.000
1587066421.460,-36.621,-83.496,-417.969,-30.273,0.000
1587066421.464,-68.359,-106.934,-466.309,-50.781,0.000
1587066421.468,-45.898,-87.891,-454.590,-39.062,0.000
1587066421.471,-7.324,-171.875,-510.742,0.000,0.000
1587066421.475,-38.574,73.242,-351.562,-23.438,0.000
1587066421.479,-68.359,27.832,-375.000,-39.551,0.000
1587066421.483,-52.246,-69.336,-455.566,-31.738,0.000
1587066421.487,-13.672,71.289,-343.262,-20.020,0.000
1587066421.491,-2.441,44.922,-343.262,-18.066,0.000
1587066421.495,-28.320,-59.082,-425.293,-35.156,0.000
1587066421.499,-36.133,-122.070,-525.391,-36.621,0.000
1587066421.503,-15.137,-8.789,-387.695,-19.531,0.000
1587066421.507,-1.465,4.883,-370.605,6.348,0.000
1587066421.510,-21.973,-81.543,-469.238,-8.301,0.000
1587066421.514,-16.602,-262.695,-619.629,-17.090,0.000
1587066421.518,-5.371,-74.707,-432.129,-14.648,0.000
1587066421.522,-11.230,199.707,-244.141,-15.625,0.000
1587066421.526,-28.809,54.688,-376.953,-12.207,0.000
1587066421.530,-55.176,-43.457,-369.629,-33.691,0.000
1587066421.534,-59.082,40.039,-327.637,-46.387,0.000
1587066421.538,-25.879,127.441,-212.891,-41.504,0.000
1587066421.542,-10.742,21.484,-307.617,-19.531,0.000
1587066421.546,-51.758,-132.324,-460.449,-26.855,0.000
1587066421.550,-56.152,-136.230,-485.840,-46.875,0.000
1587066421.553,-22.461,-55.176,-428.711,-26.367,0.000
1587066421.557,-25.879,-104.004,-451.172,-14.648,0.000
1587066421.561,-55.664,-258.789,-581.055,-22.949,0.000
1587066421.565,-81.543,-10.254,-430.664,-56.152,0.000
1587066421.569,-41.016,119.141,-306.152,-41.016,0.000
1587066421.573,0.488,-2.441,-366.699,-7.324,0.000
1587066421.577,-49.316,-14.160,-363.770,-25.879,0.000
1587066421.581,-91.797,2.930,-360.840,-51.270,0.000
1587066421.585,-51.758,-6.348,-391.113,-37.109,0.000
1587066421.589,-7.812,-34.668,-409.668,-0.977,0.000
1587066421.593,-45.410,22.461,-334.473,-16.113,0.000
1587066421.596,-81.055,2.930,-336.426,-54.688,0.000
1587066421.600,-55.664,-120.605,-437.500,-46.387,0.000
1587066421.604,-4.395,-266.113,-557.617,-9.277,0.000
1587066421.608,-22.949,-156.738,-470.703,-9.277,0.000
1587066421.612,-83.496,78.613,-323.730,-63.477,0.000
1587066421.616,-74.707,-12.695,-412.109,-66.895,0.000
1587066421.620,-23.438,-26.855,-312.500,-29.785,0.000
1587066421.624,-24.414,94.238,-202.148,-27.832,0.000
1587066421.628,-66.895,56.641,-287.598,-49.316,0.000
1587066421.632,-53.223,-59.082,-394.043,-52.734,0.000
1587066421.635,-18.555,-49.805,-349.609,-31.250,0.000
1587066421.639,-12.207,76.172,-235.352,-17.090,0.000
1587066421.643,-32.227,7.324,-373.047,-20.020,0.000
1587066421.647,-39.551,-229.980,-545.410,-19.043,0.000
1587066421.651,-18.066,-242.188,-460.938,-19.531,0.000
1587066421.655,-11.719,129.883,-161.133,-28.320,0.000
1587066421.659,-23.926,157.227,-193.848,-31.738,0.000
1587066421.663,-46.387,-118.164,-432.129,-41.504,0.000
1587066421.667,-49.316,-160.645,-470.215,-40.527,0.000
1587066421.671,-25.879,21.484,-343.262,-29.785,0.000
1587066421.675,-28.320,89.844,-315.430,-37.109,0.000
1587066421.678,-54.199,-124.023,-513.184,-49.316,0.000
1587066421.682,-70.801,-96.191,-469.727,-55.176,0.000
1587066421.686,-37.598,128.906,-240.234,-47.852,0.000
1587066421.690,-0.488,117.188,-232.910,-18.555,0.000
1587066421.694,-24.414,-190.430,-526.855,-2.441,0.000
1587066421.698,-56.152,-233.887,-543.457,-31.250,0.000
1587066421.702,-41.992,36.621,-330.566,-41.504,0.000
1587066421.706,-10.742,75.195,-269.043,-20.020,0.000
1587066421.710,-13.672,-202.148,-522.949,4.395,0.000
1587066421.714,-64.941,-123.047,-474.121,-40.527,0.000
1587066421.718,-64.941,68.359,-341.797,-64.941,0.000
1587066421.721,-20.020,15.625,-381.836,-23.926,0.000
1587066421.725,-27.832,-70.801,-413.086,-16.602,0.000
1587066421.729,-78.125,-44.922,-397.461,-58.594,0.000
1587066421.733,-91.309,0.488,-352.051,-70.312,0.000
1587066421.737,-41.016,2.930,-316.895,-31.738,0.000
1587066421.741,-26.367,-114.258,-437.012,-12.207,0.000
1587066421.745,-62.012,-166.992,-497.070,-36.133,0.000
1587066421.749,-81.055,-21.484,-391.113,-59.082,0.000
1587066421.753,-37.109,-50.293,-406.250,-25.391,0.000
1587066421.757,-3.418,-247.559,-545.410,4.883,0.000
1587066421.760,-59.082,-90.332,-468.262,-44.434,0.000
1587066421.764,-93.750,43.457,-361.328,-74.707,0.000
1587066421.768,-53.711,-45.410,-409.180,-42.969,0.000
1587066421.772,-24.414,25.391,-348.633,-24.414,0.000
1587066421.776,-42.969,72.754,-316.406,-33.203,0.000
1587066421.780,-60.547,-83.984,-453.125,-45.410,0.000
1587066421.784,-51.270,-161.621,-521.484,-49.316,0.000
1587066421.788,-24.902,-69.336,-431.641,-27.832,0.000
1587066421.792,-36.133,-35.645,-422.363,-20.020,0.000
1587066421.796,-75.195,-43.945,-412.598,-51.758,0.000
1587066421.800,-65.430,-253.906,-617.188,-43.457,0.000
1587066421.803,-43.457,-56.641,-402.344,-36.133,0.000
1587066421.807,-40.527,235.352,-80.078,-36.133,0.000
1587066421.811,-58.594,19.531,-313.965,-36.621,0.000
1587066421.815,-61.035,-109.863,-426.758,-41.504,0.000
1587066421.819,-40.039,31.738,-333.984,-24.414,0.000
1587066421.823,-23.926,130.859,-241.699,-12.695,0.000
1587066421.827,-33.203,-24.902,-364.258,-22.949,0.000
1587066421.831,-60.547,-170.410,-466.797,-32.227,0.000
1587066421.835,-48.340,-104.980,-401.367,-28.320,0.000
1587066421.839,-21.484,-17.090,-374.512,-16.113,0.000
1587066421.843,-28.809,-99.609,-443.359,-16.602,0.000
1587066421.846,-65.918,-217.773,-468.262,-40.527,0.000
1587066421.850,-73.242,4.883,-369.629,-59.082,0.000
1587066421.854,-30.762,40.527,-381.836,-29.785,0.000
1587066421.858,-25.879,-107.910,-483.887,-17.578,0.000
1587066421.862,-67.383,-100.098,-454.102,-48.340,0.000
1587066421.866,-77.637,43.945,-372.559,-65.918,0.000
1587066421.870,-30.762,85.938,-310.059,-39.551,0.000
1587066421.874,-6.348,-72.266,-470.703,-20.508,0.000
1587066421.878,-44.922,-137.207,-520.020,-39.062,0.000
1587066421.882,-66.895,-124.512,-457.520,-43.945,0.000
1587066421.885,-33.203,-104.980,-485.840,-30.762,0.000
1587066421.889,1.953,-190.430,-576.172,-8.789,0.000
1587066421.893,-38.086,-83.984,-442.871,-22.461,0.000
1587066421.897,-89.844,63.477,-373.047,-58.105,0.000
1587066421.901,-54.199,-27.344,-455.078,-39.551,0.000
1587066421.905,-19.043,61.035,-278.809,-22.461,0.000
1587066421.909,-41.504,131.348,-240.234,-28.320,0.000
1587066421.913,-65.430,0.000,-356.445,-34.668,0.000
1587066421.917,-42.480,-73.242,-446.777,-41.016,0.000
1587066421.921,-33.691,70.801,-214.844,-32.715,0.000
1587066421.925,-40.527,114.746,-54.688,-19.043,0.000
1587066421.928,-48.828,-104.980,-382.324,-33.691,0.000
1587066421.932,-44.434,-231.445,-535.645,-34.180,0.000
1587066421.936,-16.113,-238.770,-503.906,0.000,0.000
1587066421.940,-35.645,99.609,-250.488,-22.461,0.000
1587066421.944,-59.570,69.336,-356.934,-32.715,0.000
1587066421.948,-58.105,-229.492,-584.473,-23.926,0.000
1587066421.952,-39.062,-36.621,-359.375,-33.203,0.000
1587066421.956,1.953,86.914,-298.340,-13.672,0.000
1587066421.960,-20.020,-64.453,-448.730,-13.184,0.000
1587066421.964,-57.617,-164.551,-532.715,-41.992,0.000
1587066421.968,-40.527,-21.973,-414.551,-42.480,0.000
1587066421.971,-25.391,139.160,-246.582,-20.996,0.000
1587066421.975,-28.809,-40.527,-403.320,-20.020,0.000
1587066421.979,-44.434,-262.207,-651.367,-30.762,0.000
1587066421.983,-62.500,-55.664,-457.031,-43.945,0.000
1587066421.987,-33.203,173.340,-212.891,-33.691,0.000
1587066421.991,-12.207,117.676,-187.500,-14.160,0.000
1587066421.995,-17.578,-291.016,-530.762,-7.812,0.000
1587066421.999,-39.551,-137.207,-478.027,-42.480,0.000
1587066422.003,-56.641,220.703,-151.367,-51.270,0.000
1587066422.007,-33.691,81.543,-212.891,-28.320,0.000
1587066422.010,-42.480,-49.316,-363.281,-34.668,0.000
1587066422.014,-74.707,-101.562,-435.059,-41.992,0.000
1587066422.018,-53.223,-44.434,-364.258,-31.738,0.000
1587066422.022,-3.906,-43.457,-379.883,-2.441,0.000
1587066422.026,-13.184,-251.953,-598.145,5.859,0.000
1587066422.030,-73.730,-16.113,-410.156,-51.270,0.000
1587066422.034,-67.383,117.676,-289.062,-53.711,0.000
1587066422.038,-23.926,0.488,-366.699,-12.207,0.000
1587066422.042,-28.320,-40.527,-389.648,-25.879,0.000
1587066422.046,-79.590,26.855,-343.262,-53.223,0.000
1587066422.050,-77.637,-4.395,-380.371,-41.504,0.000
1587066422.053,-27.832,-70.312,-424.805,-9.277,0.000
1587066422.057,-20.508,20.508,-355.957,-6.836,0.000
1587066422.061,-59.570,62.500,-310.059,-35.645,0.000
1587066422.065,-67.871,-9.766,-372.559,-47.363,0.000
1587066422.069,-29.297,-155.762,-514.648,-20.020,0.000
1587066422.073,-17.578,-106.934,-427.734,-7.324,0.000
1587066422.077,-53.223,14.160,-337.402,-34.180,0.000
1587066422.081,-72.266,-20.996,-406.738,-46.387,0.000
1587066422.085,-26.367,-228.027,-582.031,-7.324,0.000
1587066422.089,-9.766,15.137,-324.219,-10.742,0.000
1587066422.093,-32.715,161.621,-260.742,-34.668,0.000
1587066422.096,-61.523,-56.641,-451.660,-45.410,0.000
1587066422.100,-59.570,-91.797,-399.902,-47.852,0.000
1587066422.104,-26.367,89.844,-263.672,-31.250,0.000
1587066422.108,-26.855,94.238,-283.691,-27.344,0.000
1587066422.112,-58.594,-120.605,-458.984,-39.062,0.000
1587066422.116,-45.898,-204.590,-533.203,-28.320,0.000
1587066422.120,-14.160,-31.250,-369.141,-13.672,0.000
1587066422.124,-10.254,158.691,-219.727,-18.066,0.000
1587066422.128,-26.367,-86.914,-420.410,-22.949,0.000
1587066422.132,-47.363,-400.879,-641.602,-26.855,0.000
1587066422.135,-36.133,-79.590,-436.035,-31.250,0.000
1587066422.139,-3.906,106.934,-297.852,-14.648,0.000
1587066422.143,-20.020,-47.363,-425.293,-17.090,0.000
1587066422.147,-54.199,-79.102,-452.148,-41.504,0.000
1587066422.151,-39.551,32.227,-368.164,-34.180,0.000
1587066422.155,-10.254,106.934,-263.184,-7.324,0.000
1587066422.159,-19.043,-20.996,-402.344,-11.719,0.000
1587066422.163,-38.086,-228.516,-582.520,-25.391,0.000
1587066422.167,-38.574,-113.770,-467.773,-24.414,0.000
1587066422.171,-8.301,120.605,-280.762,-14.648,0.000
1587066422.175,15.137,-144.043,-523.438,12.695,0.000
1587066422.178,-54.199,-139.648,-478.516,-28.809,0.000
1587066422.182,-72.266,103.516,-310.059,-57.617,0.000
1587066422.186,-9.766,21.484,-372.559,-15.625,0.000
1587066422.190,-4.395,-50.781,-395.996,-10.742,0.000
1587066422.194,-38.086,8.789,-373.535,-42.969,0.000
1587066422.198,-52.246,32.715,-357.422,-59.570,0.000
1587066422.202,-25.391,25.391,-361.328,-33.691,0.000
1587066422.206,-0.977,41.504,-296.387,-1.953,0.000
1587066422.210,-19.531,-84.961,-410.156,-16.113,0.000
1587066422.214,-53.711,-179.688,-525.391,-42.480,0.000
1587066422.218,-41.504,-161.621,-532.227,-31.250,0.000
1587066422.221,1.953,-161.621,-514.160,7.812,0.000
1587066422.225,-23.926,70.801,-361.816,-6.348,0.000
1587066422.229,-60.547,2.930,-419.434,-38.574,0.000
1587066422.233,-50.293,-104.492,-513.672,-34.180,0.000
1587066422.237,-23.438,89.355,-317.383,-19.043,0.000
1587066422.241,-23.926,161.621,-219.238,-20.508,0.000
1587066422.245,-63.965,-12.207,-393.555,-40.039,0.000
1587066422.249,-63.477,-192.383,-569.336,-38.574,0.000
1587066422.253,-34.668,-35.156,-391.113,-21.484,0.000
1587066422.257,-21.973,29.297,-354.492,-7.812,0.000
1587066422.260,-43.457,-115.234,-511.230,-30.762,0.000
1587066422.264,-56.641,-332.520,-695.312,-39.551,0.000
1587066422.268,-48.828,-119.629,-463.379,-39.062,0.000
1587066422.272,-39.062,234.863,-178.711,-41.992,0.000
1587066422.276,-41.992,61.523,-352.539,-27.344,0.000
1587066422.280,-48.828,-78.613,-402.344,-32.227,0.000
1587066422.284,-38.574,72.266,-317.871,-44.434,0.000
1587066422.288,-20.020,166.016,-198.242,-30.273,0.000
1587066422.292,-21.484,9.766,-340.332,-20.020,0.000
1587066422.296,-67.383,-94.727,-416.992,-44.434,0.000
1587066422.300,-84.473,14.648,-325.684,-57.129,0.000
1587066422.303,-31.250,23.438,-340.332,-30.762,0.000
1587066422.307,5.371,-102.051,-437.012,-5.859,0.000
1587066422.311,-24.902,-310.059,-590.332,-8.789,0.000
1587066422.315,-64.941,-32.715,-415.527,-57.617,0.000
1587066422.319,-32.227,125.000,-299.805,-49.805,0.000
1587066422.323,-5.859,-41.016,-387.207,-14.160,0.000
1587066422.327,-44.434,-17.090,-374.023,-35.156,0.000
1587066422.331,-71.777,8.789,-372.070,-52.734,0.000
1587066422.335,-47.852,32.715,-328.613,-37.598,0.000
1587066422.339,-3.418,-0.977,-331.055,-7.324,0.000
1587066422.343,-15.137,-32.715,-375.977,-6.836,0.000
1587066422.346,-45.410,-69.824,-391.113,-26.367,0.000
1587066422.350,-32.227,-139.648,-478.516,-20.508,0.000
1587066422.354,1.465,-225.586,-583.496,9.766,0.000
1587066422.358,-17.578,-105.469,-445.312,-0.977,0.000
1587066422.362,-66.895,60.547,-342.773,-48.828,0.000
1587066422.366,-49.805,-95.703,-516.602,-43.457,0.000
1587066422.370,-4.883,-62.012,-377.930,-12.207,0.000
1587066422.374,-5.859,93.262,-245.117,-8.789,0.000
1587066422.378,-44.922,0.000,-380.371,-33.203,0.000
1587066422.382,-60.059,-122.559,-493.652,-46.875,0.000
1587066422.385,-34.180,-74.707,-375.977,-39.551,0.000
1587066422.389,-24.902,88.379,-214.355,-33.203,0.000
1587066422.393,-45.410,63.477,-316.895,-45.898,0.000
1587066422.397,-50.293,-211.426,-542.480,-45.410,0.000
1587066422.401,-18.555,-361.328,-627.930,-13.184,0.000
1587066422.405,-11.230,45.410,-325.195,-23.926,0.000
1587066422.409,-26.855,131.348,-303.223,-41.504,0.000
1587066422.413,-49.805,-144.531,-490.723,-45.410,0.000
1587066422.417,-43.457,-191.406,-532.227,-37.109,0.000
1587066422.421,-15.137,1.465,-395.020,-22.461,0.000
1587066422.425,-16.602,15.137,-402.832,-25.879,0.000
1587066422.428,-56.641,-149.902,-517.578,-43.457,0.000
1587066422.432,-79.590,-64.453,-423.828,-58.105,0.000
1587066422.436,-45.410,107.422,-205.078,-39.062,0.000
1587066422.440,-20.996,122.559,-123.047,-20.020,0.000
1587066422.444,-35.645,-176.758,-526.855,-14.160,0.000
1587066422.448,-59.082,-226.562,-583.984,-27.832,0.000
1587066422.452,-45.898,78.613,-298.340,-37.598,0.000
1587066422.456,-4.395,117.676,-218.262,-20.508,0.000
1587066422.460,-5.859,-129.883,-452.148,-5.371,0.000
1587066422.464,-61.035,-93.750,-433.105,-39.062,0.000
1587066422.468,-67.871,61.035,-285.156,-52.246,0.000
1587066422.471,-14.648,7.812,-324.707,-12.207,0.000
1587066422.475,13.184,-228.516,-523.926,12.207,0.000
1587066422.479,-32.715,-147.461,-482.422,-24.902,0.000
1587066422.483,-52.246,-80.566,-435.547,-42.969,0.000
1587066422.487,-29.785,-63.477,-406.738,-27.832,0.000
1587066422.491,-22.461,-32.715,-375.488,-15.137,0.000
1587066422.495,-57.617,-54.688,-378.418,-38.086,0.000
1587066422.499,-71.777,-3.418,-380.859,-63.477,0.000
1587066422.503,-13.184,-84.473,-418.945,-21.973,0.000
1587066422.507,10.742,-270.020,-513.672,20.508,0.000
1587066422.510,-44.434,-126.465,-460.938,-21.484,0.000
1587066422.514,-76.172,16.113,-383.789,-63.965,0.000
1587066422.518,-38.086,-75.195,-450.684,-30.762,0.000
1587066422.522,-13.672,55.176,-298.828,-2.441,0.000
1587066422.526,-37.109,110.840,-266.602,-28.320,0.000
1587066422.530,-55.176,-59.082,-391.113,-53.223,0.000
1587066422.534,-44.434,-162.598,-490.723,-38.574,0.000
1587066422.538,-14.648,-101.562,-409.180,-20.508,0.000
1587066422.542,-22.461,-1.465,-332.031,-23.926,0.000
1587066422.546,-65.918,-89.355,-428.223,-37.598,0.000
1587066422.550,-58.594,-281.738,-621.582,-32.715,0.000
1587066422.553,-30.762,-26.855,-345.703,-36.621,0.000
1587066422.557,-30.762,195.312,-131.836,-33.203,0.000
1587066422.561,-43.457,-63.477,-404.785,-33.203,0.000
1587066422.565,-51.758,-157.227,-444.336,-47.852,0.000
1587066422.569,-42.969,64.453,-251.465,-39.551,0.000
1587066422.573,-26.855,123.047,-170.898,-20.508,0.000
1587066422.577,-41.992,-79.102,-398.438,-27.344,0.000
1587066422.581,-61.035,-136.719,-447.266,-51.758,0.000
1587066422.585,-32.227,-125.000,-433.594,-36.621,0.000
1587066422.589,-18.555,19.043,-325.195,-23.926,0.000
1587066422.593,-46.387,8.301,-351.562,-32.227,0.000
1587066422.596,-59.082,-328.613,-584.961,-22.949,0.000
1587066422.600,-67.871,-116.211,-423.828,-43.945,0.000
1587066422.604,-37.598,68.359,-340.332,-30.273,0.000
1587066422.608,-19.043,-18.555,-386.230,-20.508,0.000
1587066422.612,-73.242,2.441,-331.055,-62.012,0.000
1587066422.616,-83.984,6.348,-370.117,-71.289,0.000
1587066422.620,-44.922,11.719,-331.055,-51.758,0.000
1587066422.624,-27.344,-39.062,-388.672,-36.133,0.000
1587066422.628,-63.477,-73.242,-416.504,-56.152,0.000
1587066422.632,-76.660,-163.086,-472.656,-68.359,0.000
1587066422.635,-26.367,-163.574,-481.445,-39.551,0.000
1587066422.639,8.301,-170.410,-525.391,-12.695,0.000
1587066422.643,-44.434,-96.680,-437.500,-41.992,0.000
1587066422.647,-102.051,67.871,-325.684,-84.473,0.000
1587066422.651,-75.684,35.156,-351.074,-68.359,0.000
1587066422.655,-32.715,-66.406,-364.746,-35.645,0.000
1587066422.659,-43.945,-71.777,-409.668,-44.922,0.000
1587066422.663,-89.844,2.930,-358.887,-82.031,0.000
1587066422.667,-71.777,-50.293,-414.551,-77.148,0.000
1587066422.671,-29.297,2.441,-297.852,-52.734,0.000
1587066422.675,-35.156,65.918,-241.211,-44.434,0.000
1587066422.678,-56.641,-113.281,-441.406,-52.734,0.000
1587066422.682,-57.129,-261.230,-550.781,-54.688,0.000
1587066422.686,-20.996,-287.109,-530.273,-14.160,0.000
1587066422.690,-29.785,101.074,-244.629,-22.461,0.000
1587066422.694,-64.453,74.219,-345.215,-46.875,0.000
1587066422.698,-67.383,-168.457,-485.352,-41.016,0.000
1587066422.702,-44.922,17.090,-292.969,-27.344,0.000
1587066422.706,-21.484,198.730,-9.277,-18.555,0.000
1587066422.710,-35.156,95.703,-93.262,-17.578,0.000
1587066422.714,-46.387,-246.094,-548.828,-11.230,0.000
1587066422.718,-25.879,-202.148,-536.621,-19.531,0.000
1587066422.721,-22.949,92.773,-256.836,-13.184,0.000
1587066422.725,-25.391,-13.184,-371.582,-7.812,0.000
1587066422.729,-38.574,-357.910,-683.105,-20.508,0.000
1587066422.733,-57.617,-209.961,-520.508,-50.781,0.000
1587066422.737,-40.039,160.156,-250.977,-52.734,0.000
1587066422.741,-27.832,78.125,-342.773,-28.809,0.000
1587066422.745,-52.246,-119.141,-401.855,-43.457,0.000
1587066422.749,-62.988,-78.125,-411.621,-55.176,0.000
1587066422.753,-25.391,18.555,-387.695,-22.461,0.000
1587066422.757,-4.883,43.457,-316.406,-10.254,0.000
1587066422.760,-36.133,-47.363,-362.305,-23.926,0.000
1587066422.764,-60.547,-83.008,-425.293,-41.016,0.000
1587066422.768,-37.598,4.883,-345.215,-25.879,0.000
1587066422.772,-9.277,-64.453,-380.859,10.742,0.000
1587066422.776,-18.066,-230.469,-520.508,12.695,0.000
1587066422.780,-64.941,-102.539,-447.266,-37.109,0.000
1587066422.784,-62.988,100.586,-330.566,-45.898,0.000
1587066422.788,-2.930,25.391,-352.539,-0.977,0.000
1587066422.792,-1.465,-90.820,-400.391,8.789,0.000
1587066422.796,-42.969,60.059,-305.176,-26.855,0.000
1587066422.800,-42.480,24.902,-375.488,-37.598,0.000
1587066422.803,-13.184,-57.129,-405.273,-21.973,0.000
1587066422.807,-13.184,57.617,-312.988,-25.391,0.000
1587066422.811,-51.758,33.203,-358.887,-55.176,0.000
1587066422.815,-66.895,-23.926,-401.855,-68.359,0.000
1587066422.819,-23.438,-134.766,-518.066,-34.668,0.000
1587066422.823,-12.695,-113.281,-464.355,-23.438,0.000
1587066422.827,-67.871,72.754,-304.688,-59.570,0.000
1587066422.831,-78.125,-30.273,-429.688,-64.453,0.000
1587066422.835,-23.926,-301.270,-652.344,-25.879,0.000
1587066422.839,-20.996,-12.207,-398.438,-39.551,0.000
1587066422.843,-55.664,192.871,-272.949,-70.801,0.000
1587066422.846,-70.801,-3.906,-407.715,-77.637,0.000
1587066422.850,-48.828,-51.270,-408.203,-67.871,0.000
1587066422.854,-9.766,116.211,-263.672,-47.363,0.000
1587066422.858,-22.949,126.953,-226.562,-44.434,0.000
1587066422.862,-62.500,-90.332,-419.922,-53.711,0.000
1587066422.866,-60.059,-246.582,-557.129,-56.152,0.000
1587066422.870,-33.203,-73.730,-394.531,-46.387,0.000
1587066422.874,-35.156,163.086,-236.816,-46.875,0.000
1587066422.878,-52.734,-98.145,-444.336,-53.711,0.000
1587066422.882,-48.340,-405.762,-628.906,-41.992,0.000
1587066422.885,-39.551,-20.020,-385.254,-44.434,0.000
1587066422.889,-23.438,214.844,-229.492,-36.133,0.000
1587066422.893,-38.574,-59.570,-446.777,-27.832,0.000
1587066422.897,-79.590,-83.496,-461.426,-71.777,0.000
1587066422.901,-59.570,91.797,-296.875,-78.125,0.000
1587066422.905,-5.371,120.605,-203.613,-35.156,0.000
1587066422.909,-15.625,-72.754,-427.246,-21.484,0.000
1587066422.913,-55.664,-213.867,-544.922,-38.086,0.000
1587066422.917,-54.199,-74.707,-397.461,-51.758,0.000
1587066422.921,-20.508,105.469,-285.645,-40.039,0.000
1587066422.925,10.254,-144.531,-530.273,2.441,0.000
1587066422.928,-31.250,-177.246,-516.113,-28.809,0.000
1587066422.932,-66.406,61.035,-369.141,-70.312,0.000
1587066422.936,-17.578,57.129,-380.371,-38.086,0.000
1587066422.940,-6.348,23.926,-316.406,-3.906,0.000
1587066422.944,-56.641,41.504,-341.797,-39.062,0.000
1587066422.948,-71.777,-51.758,-432.129,-70.312,0.000
1587066422.952,-41.504,-83.984,-435.547,-45.410,0.000
1587066422.956,-21.973,50.293,-299.805,-29.297,0.000
1587066422.960,-35.645,-53.711,-415.039,-25.879,0.000
1587066422.964,-62.988,-174.805,-527.832,-49.805,0.000
1587066422.968,-54.199,-158.691,-488.770,-50.781,0.000
1587066422.971,-13.184,-208.984,-536.133,-5.859,0.000
1587066422.975,-40.039,49.805,-349.121,-40.039,0.000
1587066422.979,-78.125,2.930,-398.438,-77.637,0.000
1587066422.983,-62.012,-108.398,-516.602,-68.359,0.000
1587066422.987,-38.086,74.219,-322.754,-41.992,0.000
1587066422.991,-32.227,169.922,-199.707,-34.668,0.000
1587066422.995,-59.082,15.137,-332.520,-60.547,0.000
1587066422.999,-71.289,-123.535,-472.168,-62.012,0.000
1587066423.003,-40.039,20.508,-298.340,-40.039,0.000
1587066423.007,-13.184,30.273,-298.828,-18.555,0.000
1587066423.010,-42.969,-127.930,-498.535,-28.809,0.000
1587066423.014,-71.777,-240.234,-614.746,-57.129,0.000
1587066423.018,-50.781,32.227,-349.121,-66.406,0.000
1587066423.022,-27.832,233.887,-117.676,-40.039,0.000
1587066423.026,-39.551,15.625,-347.656,-28.809,0.000
1587066423.030,-54.688,-359.863,-630.371,-32.715,0.000
1587066423.034,-52.246,-92.285,-392.090,-48.828,0.000
1587066423.038,-17.578,238.281,-88.379,-35.156,0.000
1587066423.042,-3.906,47.363,-236.816,-8.789,0.000
1587066423.046,-41.016,-125.977,-424.316,-33.691,0.000
1587066423.050,-47.852,-62.012,-394.043,-47.363,0.000
1587066423.053,-0.488,0.000,-338.867,-23.438,0.000
1587066423.057,-2.930,-129.883,-468.262,-8.789,0.000
1587066423.061,-45.898,-306.641,-610.840,-16.602,0.000
1587066423.065,-75.684,-86.914,-466.309,-49.316,0.000
1587066423.069,-43.945,32.227,-372.559,-34.668,0.000
1587066423.073,-6.836,27.344,-364.746,-9.277,0.000
1587066423.077,-46.387,55.176,-347.168,-36.133,0.000
1587066423.081,-77.148,26.855,-356.934,-59.082,0.000
1587066423.085,-44.922,28.320,-339.355,-38.086,0.000
1587066423.089,8.789,-38.574,-410.645,-1.953,0.000
1587066423.093,-21.484,-20.996,-380.859,-18.555,0.000
1587066423.096,-78.613,-27.832,-380.859,-59.082,0.000
1587066423.100,-57.617,-92.773,-436.035,-58.594,0.000
1587066423.104,0.488,-199.707,-527.832,-19.043,0.000
1587066423.108,-21.973,-110.352,-444.824,-27.832,0.000
1587066423.112,-84.961,75.684,-345.703,-72.266,0.000
1587066423.116,-78.613,0.488,-387.695,-72.266,0.000
1587066423.120,-30.273,-7.812,-314.941,-45.410,0.000
1587066423.124,-29.297,73.242,-297.852,-36.133,0.000
1587066423.128,-66.406,-32.715,-368.164,-44.922,0.000
1587066423.132,-84.473,-86.914,-420.410,-61.035,0.000
1587066423.135,-50.781,-20.996,-350.586,-50.293,0.000
1587066423.139,-25.391,105.469,-197.266,-31.250,0.000
1587066423.143,-41.992,72.266,-280.273,-41.016,0.000
1587066423.147,-77.637,-187.988,-510.254,-48.340,0.000
1587066423.151,-58.105,-386.719,-618.164,-27.344,0.000
1587066423.155,-30.273,29.785,-272.949,-30.273,0.000
1587066423.159,-35.156,156.738,-255.371,-37.109,0.000
1587066423.163,-57.129,-149.414,-500.000,-40.527,0.000
1587066423.167,-62.012,-132.324,-455.078,-57.617,0.000
1587066423.171,-36.133,126.953,-221.680,-47.363,0.000
1587066423.175,-32.227,111.328,-219.727,-29.785,0.000
1587066423.178,-49.805,-92.285,-427.246,-48.828,0.000
1587066423.182,-39.551,-154.785,-480.957,-48.828,0.000
1587066423.186,-22.949,0.977,-314.941,-2.441,0.000
1587066423.190,-12.207,107.422,-239.258,4.395,0.000
1587066423.194,-31.250,-197.754,-529.785,-16.602,0.000
1587066423.198,-68.359,-217.773,-546.875,-30.273,0.000
1587066423.202,-55.176,73.242,-293.945,-37.598,0.000
1587066423.206,-29.785,136.719,-143.555,-21.973,0.000
1587066423.210,-26.855,-226.562,-505.371,-5.371,0.000
1587066423.214,-67.871,-159.180,-461.914,-40.527,0.000
1587066423.218,-58.105,98.633,-267.090,-43.457,0.000
1587066423.221,8.301,15.625,-344.238,-5.859,0.000
1587066423.225,-8.301,-42.480,-340.820,-9.277,0.000
1587066423.229,-69.824,-56.152,-372.559,-41.016,0.000
1587066423.233,-60.547,-40.039,-398.926,-43.457,0.000
1587066423.237,-20.996,-8.301,-360.840,-15.137,0.000
1587066423.241,-4.883,-100.098,-394.531,4.395,0.000
1587066423.245,-31.250,-161.133,-456.055,-17.578,0.000
1587066423.249,-48.828,-128.906,-431.641,-35.645,0.000
1587066423.253,-12.695,-42.480,-383.789,-11.719,0.000
1587066423.257,2.441,29.297,-337.402,-0.488,0.000
1587066423.260,-25.879,-29.297,-379.395,-21.973,0.000
1587066423.264,-49.805,-47.852,-401.855,-44.434,0.000
1587066423.268,-33.691,-145.020,-482.422,-16.602,0.000
1587066423.272,-10.254,-159.180,-403.320,15.625,0.000
1587066423.276,-41.016,121.582,-258.789,-23.926,0.000
1587066423.280,-59.082,19.531,-381.836,-51.270,0.000
1587066423.284,-39.062,-130.371,-488.281,-35.645,0.000
1587066423.288,-4.395,-80.566,-437.012,-3.906,0.000
1587066423.292,-20.020,26.855,-340.332,-11.719,0.000
1587066423.296,-62.988,18.555,-360.352,-50.781,0.000
1587066423.300,-35.156,-270.996,-600.098,-33.203,0.000
1587066423.303,-2.930,-86.426,-401.367,-15.137,0.000
1587066423.307,-16.602,201.660,-210.449,-19.531,0.000
1587066423.311,-45.410,-12.207,-393.066,-24.414,0.000
1587066423.315,-60.059,-134.766,-439.453,-50.293,0.000
1587066423.319,-45.898,27.832,-328.125,-55.176,0.000
1587066423.323,-35.156,138.672,-245.117,-36.133,0.000
1587066423.327,-45.410,-13.672,-397.949,-30.273,0.000
1587066423.331,-68.359,-133.789,-467.285,-47.852,0.000
1587066423.335,-51.758,-130.859,-448.242,-33.691,0.000
1587066423.339,-20.996,20.020,-328.125,-12.695,0.000
1587066423.343,-29.785,-20.508,-414.062,-12.695,0.000
1587066423.346,-48.828,-338.867,-623.535,-17.578,0.000
1587066423.350,-55.664,-55.664,-410.645,-41.016,0.000
1587066423.354,-22.949,58.105,-363.770,-21.484,0.000
1587066423.358,-13.672,-56.152,-436.523,-13.184,0.000
1587066423.362,-67.871,-3.906,-366.699,-48.340,0.000
1587066423.366,-81.055,45.898,-344.727,-63.477,0.000
1587066423.370,-36.621,68.359,-288.574,-34.668,0.000
1587066423.374,-5.371,-14.648,-395.020,0.000,0.000
1587066423.378,-31.250,-37.598,-415.039,-18.066,0.000
1587066423.382,-57.129,-98.633,-419.922,-35.156,0.000
1587066423.385,-25.391,-70.312,-417.480,-30.762,0.000
1587066423.389,11.719,-146.973,-521.484,-11.719,0.000
1587066423.393,-16.602,-138.672,-475.098,-37.598,0.000
1587066423.397,-60.547,62.012,-333.008,-73.730,0.000
1587066423.401,-40.039,43.945,-344.238,-57.617,0.000
1587066423.405,4.395,-11.719,-313.965,-17.090,0.000
1587066423.409,-10.254,55.176,-313.965,-3.418,0.000
1587066423.413,-58.594,39.551,-349.121,-36.621,0.000
1587066423.417,-51.758,-61.523,-444.824,-36.133,0.000
1587066423.421,-14.648,-8.301,-328.125,-8.789,0.000
1587066423.425,-16.113,93.262,-243.164,-12.695,0.000
1587066423.428,-39.551,-66.406,-431.152,-31.250,0.000
1587066423.432,-36.621,-226.562,-540.527,-36.621,0.000
1587066423.436,1.465,-240.723,-509.766,-4.395,0.000
1587066423.440,-8.301,130.371,-162.109,-18.066,0.000
1587066423.444,-40.039,89.355,-240.723,-33.691,0.000
1587066423.448,-41.504,-201.660,-494.629,-28.809,0.000
1587066423.452,-39.551,-4.883,-325.684,-34.668,0.000
1587066423.456,-29.297,191.895,-44.922,-29.297,0.000
1587066423.460,-23.438,74.219,-124.512,-17.578,0.000
1587066423.464,-51.270,-190.918,-510.254,-18.555,0.000
1587066423.468,-54.199,-57.617,-393.555,-34.668,0.000
1587066423.471,-27.832,113.281,-212.891,-27.832,0.000
1587066423.475,-29.785,-41.504,-384.766,-17.578,0.000
1587066423.479,-46.875,-312.988,-646.973,-22.949,0.000
1587066423.483,-56.641,-225.586,-546.387,-31.738,0.000
1587066423.487,-34.180,184.082,-211.914,-38.086,0.000
1587066423.491,-15.625,103.027,-286.621,-20.508,0.000
1587066423.495,-53.223,-114.746,-420.898,-39.551,0.000
1587066423.499,-73.242,-60.547,-432.617,-63.477,0.000
1587066423.503,-36.133,62.500,-345.215,-37.598,0.000
1587066423.507,-7.324,73.730,-300.293,-21.973,0.000
1587066423.510,-32.227,-67.383,-417.480,-36.133,0.000
1587066423.514,-64.453,-54.199,-408.203,-55.176,0.000
1587066423.518,-44.922,48.828,-307.617,-48.828,0.000
1587066423.522,-4.883,-57.617,-404.785,-16.113,0.000
1587066423.526,-11.230,-278.320,-597.168,-5.371,0.000
1587066423.530,-66.406,-31.738,-435.547,-54.688,0.000
1587066423.534,-57.129,52.734,-407.227,-48.828,0.000
1587066423.538,-13.184,-13.184,-391.602,-19.043,0.000
1587066423.542,-32.227,-2.441,-383.301,-29.785,0.000
1587066423.546,-82.031,42.480,-354.980,-70.312,0.000
1587066423.550,-62.500,41.504,-355.957,-64.941,0.000
1587066423.553,-4.395,-40.527,-415.039,-12.695,0.000
1587066423.557,-24.414,55.664,-309.082,-22.949,0.000
1587066423.561,-71.777,50.293,-314.941,-61.035,0.000
1587066423.565,-66.895,-99.609,-431.152,-63.477,0.000
1587066423.569,-15.625,-151.367,-486.816,-26.367,0.000
1587066423.573,-3.906,4.883,-352.539,-8.789,0.000
1587066423.577,-53.711,78.125,-310.547,-41.016,0.000
1587066423.581,-68.359,-65.918,-416.504,-54.688,0.000
1587066423.585,-31.250,-289.551,-594.238,-17.578,0.000
1587066423.589,-20.020,-77.637,-446.777,-9.766,0.000
1587066423.593,-48.340,72.754,-382.812,-36.621,0.000
1587066423.596,-73.242,-98.633,-461.914,-59.570,0.000
1587066423.600,-64.453,-35.156,-354.004,-60.547,0.000
1587066423.604,-33.691,118.164,-141.113,-36.621,0.000
1587066423.608,-35.645,92.285,-119.141,-26.855,0.000
1587066423.612,-56.152,-125.000,-442.383,-40.039,0.000
1587066423.616,-57.129,-266.602,-572.754,-34.668,0.000
1587066423.620,-31.250,-61.523,-368.652,-19.531,0.000
1587066423.624,-26.367,154.785,-245.605,-31.738,0.000
1587066423.628,-46.875,-89.844,-452.148,-31.250,0.000
1587066423.632,-48.828,-390.625,-657.227,-19.043,0.000
1587066423.635,-30.762,-102.051,-480.469,-35.645,0.000
1587066423.639,-29.785,178.223,-252.441,-39.551,0.000
1587066423.643,-54.199,21.973,-363.281,-38.574,0.000
1587066423.647,-73.242,-83.008,-451.172,-61.523,0.000
1587066423.651,-52.246,-79.590,-449.707,-51.270,0.000
1587066423.655,-17.090,22.461,-326.660,-21.973,0.000
1587066423.659,-20.020,-68.359,-456.543,-17.578,0.000
1587066423.663,-52.734,-231.934,-603.516,-37.109,0.000
1587066423.667,-49.316,-91.797,-446.289,-43.945,0.000
1587066423.671,-13.184,140.625,-248.535,-18.066,0.000
1587066423.675,7.324,-103.027,-467.285,7.324,0.000
1587066423.678,-32.715,-131.836,-472.168,-37.109,0.000
1587066423.682,-65.918,118.164,-288.086,-77.637,0.000
1587066423.686,-30.762,20.508,-375.977,-35.645,0.000
1587066423.690,-15.137,13.672,-335.449,-19.531,0.000
1587066423.694,-53.223,57.129,-308.594,-55.664,0.000
1587066423.698,-67.383,-23.438,-356.445,-64.941,0.000
1587066423.702,-55.664,-6.836,-335.449,-36.621,0.000
1587066423.706,-32.715,20.996,-327.148,-23.438,0.000
1587066423.710,-41.016,-64.941,-395.020,-37.598,0.000
1587066423.714,-74.219,-156.250,-487.305,-54.688,0.000
1587066423.718,-59.082,-138.672,-460.938,-48.828,0.000
1587066423.721,-9.277,-124.023,-429.199,-16.113,0.000
1587066423.725,-24.414,64.941,-353.027,-34.180,0.000
1587066423.729,-68.848,-36.133,-409.668,-62.012,0.000
1587066423.733,-70.312,-90.820,-456.055,-62.500,0.000
1587066423.737,-47.363,123.047,-218.750,-49.316,0.000
1587066423.741,-36.621,171.387,-138.672,-41.016,0.000
1587066423.745,-64.453,-16.113,-399.414,-50.781,0.000
1587066423.749,-69.336,-171.875,-541.992,-62.012,0.000
1587066423.753,-34.668,-1.465,-345.703,-52.246,0.000
1587066423.757,-31.738,55.176,-308.105,-27.344,0.000
1587066423.760,-53.711,-91.309,-447.754,-33.203,0.000
1587066423.764,-54.688,-326.172,-667.480,-32.715,0.000
1587066423.768,-28.320,-186.035,-510.254,-28.809,0.000
1587066423.772,-25.879,215.820,-177.734,-38.086,0.000
1587066423.776,-49.805,111.328,-298.340,-27.832,0.000
1587066423.780,-73.730,-113.281,-407.715,-38.086,0.000
1587066423.784,-63.477,-38.086,-385.742,-45.898,0.000
1587066423.788,-21.484,115.234,-258.301,-25.879,0.000
1587066423.792,-17.090,-0.977,-353.027,-10.254,0.000
1587066423.796,-44.434,-189.941,-503.418,-28.320,0.000
1587066423.800,-45.898,-107.910,-442.871,-48.340,0.000
1587066423.803,-10.254,-9.766,-376.953,-27.344,0.000
1587066423.807,0.000,-73.730,-460.449,-10.254,0.000
1587066423.811,-36.621,-313.965,-633.789,-11.230,0.000
1587066423.815,-80.566,-34.668,-440.918,-55.664,0.000
1587066423.819,-58.594,167.969,-299.316,-54.199,0.000
1587066423.823,-10.742,-6.836,-391.113,-12.207,0.000
1587066423.827,-29.297,-17.578,-389.648,-27.832,0.000
1587066423.831,-68.359,51.270,-340.332,-56.641,0.000
1587066423.835,-43.945,57.129,-332.520,-44.434,0.000
1587066423.839,-5.371,-1.953,-358.887,-12.207,0.000
1587066423.843,-24.902,29.297,-321.777,-22.461,0.000
1587066423.846,-56.152,21.973,-324.707,-50.781,0.000
1587066423.850,-35.645,-115.234,-435.547,-38.574,0.000
1587066423.854,7.324,-231.445,-522.949,-0.977,0.000
1587066423.858,-10.742,-74.219,-385.254,-11.719,0.000
1587066423.862,-60.059,62.500,-356.934,-51.270,0.000
1587066423.866,-57.129,-37.598,-425.293,-60.059,0.000
1587066423.870,-20.020,-39.551,-325.684,-23.438,0.000
1587066423.874,-11.230,97.168,-240.234,-4.883,0.000
1587066423.878,-41.504,53.711,-299.316,-37.598,0.000
1587066423.882,-50.781,-130.859,-449.707,-54.199,0.000
1587066423.885,-25.391,-137.695,-431.152,-35.156,0.000
1587066423.889,-13.184,76.660,-270.020,-25.391,0.000
1587066423.893,-42.969,59.082,-333.984,-41.992,0.000
1587066423.897,-71.777,-255.371,-563.965,-46.875,0.000
1587066423.901,-34.668,-353.027,-598.633,-16.113,0.000
1587066423.905,-13.184,77.148,-234.863,-18.066,0.000
1587066423.909,-40.527,164.551,-197.266,-29.785,0.000
1587066423.913,-70.801,-115.723,-433.594,-33.691,0.000
1587066423.917,-62.988,-144.531,-420.410,-50.781,0.000
1587066423.921,-40.527,100.098,-219.727,-49.316,0.000
1587066423.925,-30.273,135.254,-197.266,-28.320,0.000
1587066423.928,-45.410,-120.117,-425.781,-35.156,0.000
1587066423.932,-56.152,-108.887,-443.359,-48.828,0.000
1587066423.936,-30.762,98.633,-227.051,-39.551,0.000
1587066423.940,-15.625,92.285,-183.594,-14.160,0.000
1587066423.944,-30.762,-166.016,-483.398,-7.812,0.000
1587066423.948,-44.434,-258.789,-567.871,-31.738,0.000
1587066423.952,-38.574,-26.367,-350.586,-42.969,0.000
1587066423.956,-20.020,125.000,-222.656,-26.367,0.000
1587066423.960,-7.812,-233.887,-553.223,-13.672,0.000
1587066423.964,-53.711,-219.238,-525.391,-50.781,0.000
1587066423.968,-62.500,93.262,-313.477,-65.918,0.000
1587066423.971,-8.301,86.426,-302.246,-31.738,0.000
1587066423.975,-26.367,-28.809,-335.938,-24.902,0.000
1587066423.979,-71.777,-75.195,-408.691,-57.617,0.000
1587066423.983,-62.988,-28.320,-397.949,-65.918,0.000
1587066423.987,-21.484,-0.488,-367.676,-27.832,0.000
1587066423.991,-8.789,-82.031,-417.969,-8.301,0.000
1587066423.995,-41.504,-120.605,-449.219,-32.227,0.000
1587066423.999,-59.082,-37.109,-450.684,-42.969,0.000
1587066424.003,-22.461,-99.121,-476.074,-12.207,0.000
1587066424.007,15.625,-250.488,-568.848,11.719,0.000
1587066424.010,-38.086,-34.668,-443.848,-35.645,0.000
1587066424.014,-78.613,83.496,-347.168,-68.359,0.000
1587066424.018,-28.809,-50.781,-435.547,-37.598,0.000
1587066424.022,-18.555,64.453,-279.785,-18.066,0.000
1587066424.026,-49.805,152.344,-234.863,-30.273,0.000
1587066424.030,-72.754,23.926,-331.543,-56.152,0.000
1587066424.034,-46.875,-135.742,-474.121,-41.016,0.000
1587066424.038,-3.906,-112.793,-458.496,-15.137,0.000
1587066424.042,-13.672,-9.766,-382.812,-24.414,0.000
1587066424.046,-55.664,4.395,-391.602,-48.828,0.000
1587066424.050,-55.664,-262.207,-620.117,-28.809,0.000
1587066424.053,-32.227,-89.844,-443.848,-10.254,0.000
1587066424.057,-23.926,194.824,-278.809,-16.602,0.000
1587066424.061,-48.828,-71.777,-490.234,-23.926,0.000
1587066424.065,-70.312,-129.395,-466.797,-49.316,0.000
1587066424.069,-49.805,88.867,-297.363,-46.875,0.000
1587066424.073,-35.645,173.828,-186.523,-36.621,0.000
1587066424.077,-50.293,0.977,-364.746,-42.969,0.000
1587066424.081,-67.871,-174.316,-496.094,-60.059,0.000
1587066424.085,-45.898,-149.414,-463.379,-48.828,0.000
1587066424.089,-5.859,39.551,-346.680,-23.926,0.000
1587066424.093,-11.719,-11.719,-415.527,-18.555,0.000
1587066424.096,-45.898,-330.078,-609.375,-16.602,0.000
1587066424.100,-57.617,-30.762,-401.855,-44.434,0.000
1587066424.104,-22.461,110.840,-323.242,-34.180,0.000
1587066424.108,-19.531,-10.254,-415.039,-15.137,0.000
1587066424.112,-60.059,11.230,-368.164,-33.203,0.000
1587066424.116,-59.082,13.184,-364.746,-38.574,0.000
1587066424.120,-9.766,-18.555,-375.977,-23.438,0.000
1587066424.124,15.137,4.395,-344.727,-15.137,0.000
1587066424.128,-47.852,9.766,-352.539,-40.039,0.000
1587066424.132,-70.801,-132.324,-460.449,-52.246,0.000
1587066424.135,-29.297,-128.418,-448.730,-35.645,0.000
1587066424.139,-2.441,-151.855,-519.531,-3.418,0.000
1587066424.143,-28.809,-67.871,-422.852,-20.508,0.000
1587066424.147,-67.871,81.543,-326.660,-68.848,0.000
1587066424.151,-46.875,20.996,-366.699,-53.223,0.000
1587066424.155,-7.812,-6.348,-291.016,-20.996,0.000
1587066424.159,-20.020,65.918,-301.758,-27.832,0.000
1587066424.163,-46.875,19.531,-371.094,-39.062,0.000
1587066424.167,-44.434,-85.938,-439.941,-40.527,0.000
1587066424.171,-21.484,-23.926,-305.176,-27.832,0.000
1587066424.175,-25.391,70.801,-224.121,-25.879,0.000
1587066424.178,-40.527,-111.328,-438.477,-33.203,0.000
1587066424.182,-35.645,-236.816,-564.453,-27.832,0.000
1587066424.186,-26.367,-69.336,-403.320,-29.785,0.000
1587066424.190,-26.367,140.137,-218.750,-39.062,0.000
1587066424.194,-53.711,53.223,-329.590,-50.781,0.000
1587066424.198,-61.035,-210.449,-490.723,-50.293,0.000
1587066424.202,-20.996,-263.184,-492.188,-15.137,0.000
1587066424.206,-29.297,111.328,-258.789,-20.996,0.000
1587066424.210,-63.965,137.207,-278.809,-36.133,0.000
1587066424.214,-78.125,-129.395,-480.469,-50.293,0.000
1587066424.218,-69.824,-7.324,-339.355,-63.965,0.000
1587066424.221,-34.668,159.668,-86.426,-36.621,0.000
1587066424.225,-29.297,-25.391,-336.426,-13.184,0.000
1587066424.229,-56.152,-328.613,-657.715,-22.461,0.000
1587066424.233,-63.477,-280.273,-570.801,-37.598,0.000
1587066424.237,-48.340,125.977,-230.469,-39.551,0.000
1587066424.241,-36.621,206.055,-62.500,-41.504,0.000
1587066424.245,-66.895,-95.215,-366.699,-50.293,0.000
1587066424.249,-81.543,-122.070,-471.191,-56.152,0.000
1587066424.253,-39.551,52.734,-291.992,-39.551,0.000
1587066424.257,-12.207,50.781,-276.855,-9.766,0.000
1587066424.260,-38.574,-96.191,-384.766,-15.137,0.000
1587066424.264,-74.219,-75.195,-388.672,-46.875,0.000
1587066424.268,-43.457,8.301,-347.168,-39.062,0.000
1587066424.272,22.461,-97.656,-415.039,0.000,0.000
1587066424.276,-2.441,-252.930,-532.715,5.371,0.000
1587066424.280,-64.453,-38.086,-398.438,-40.527,0.000
1587066424.284,-43.457,118.652,-301.270,-36.621,0.000
1587066424.288,1.465,4.883,-355.957,-0.488,0.000
1587066424.292,-12.695,-132.324,-440.430,1.465,0.000
1587066424.296,-56.152,-108.398,-473.633,-36.133,0.000
1587066424.300,-63.965,-25.391,-411.621,-56.641,0.000
1587066424.303,-24.414,3.906,-344.727,-24.902,0.000
1587066424.307,-15.625,28.809,-333.496,-8.301,0.000
1587066424.311,-56.641,18.555,-348.145,-37.598,0.000
1587066424.315,-72.266,-29.297,-387.207,-51.758,0.000
1587066424.319,-34.668,-126.953,-490.723,-25.879,0.000
1587066424.323,-18.066,-72.266,-427.246,-10.742,0.000
1587066424.327,-56.152,72.754,-294.922,-47.852,0.000
1587066424.331,-76.172,-25.879,-373.047,-69.336,0.000
1587066424.335,-39.062,-274.902,-559.082,-37.109,0.000
1587066424.339,-25.391,-9.277,-291.016,-31.738,0.000
1587066424.343,-34.180,190.430,-202.148,-37.109,0.000
1587066424.346,-38.086,-44.922,-402.344,-44.434,0.000
1587066424.350,-41.016,-198.242,-485.352,-36.133,0.000
1587066424.354,-22.949,7.324,-291.992,-23.438,0.000
1587066424.358,-28.809,166.016,-125.977,-26.367,0.000
1587066424.362,-58.594,-43.457,-378.906,-40.527,0.000
1587066424.366,-61.035,-216.797,-495.117,-45.898,0.000
1587066424.370,-39.062,-52.246,-314.941,-25.879,0.000
1587066424.374,-24.902,147.461,-213.867,-24.414,0.000
1587066424.378,-34.668,-90.820,-427.734,-32.227,0.000
1587066424.382,-38.574,-419.922,-634.766,-20.508,0.000
1587066424.385,-21.973,-143.066,-449.707,-15.137,0.000
1587066424.389,-9.766,143.555,-253.418,-6.348,0.000
1587066424.393,-23.926,-22.949,-376.465,-14.648,0.000
1587066424.397,-47.363,-67.871,-404.785,-49.316,0.000
1587066424.401,-53.711,62.988,-328.613,-61.035,0.000
1587066424.405,-23.438,77.148,-283.203,-42.480,0.000
1587066424.409,-24.414,-65.430,-411.133,-23.438,0.000
1587066424.413,-60.059,-183.594,-499.023,-41.992,0.000
1587066424.417,-58.594,-110.352,-424.316,-63.965,0.000
1587066424.421,-26.367,87.402,-252.441,-46.387,0.000
1587066424.425,-0.488,-157.227,-505.859,-4.395,0.000
1587066424.428,-45.898,-202.148,-514.160,-32.227,0.000
1587066424.432,-84.473,72.754,-311.035,-73.242,0.000
1587066424.436,-31.738,49.805,-345.215,-36.133,0.000
1587066424.440,-2.441,-7.324,-323.242,-15.625,0.000
1587066424.444,-54.688,10.742,-333.984,-47.852,0.000
1587066424.448,-78.613,-3.418,-357.910,-61.523,0.000
1587066424.452,-43.945,14.160,-334.473,-35.156,0.000
1587066424.456,-20.508,22.949,-310.059,-10.742,0.000
1587066424.460,-38.574,-89.844,-402.344,-14.160,0.000
1587066424.464,-81.543,-85.938,-404.785,-50.293,0.000
1587066424.468,-65.918,-111.328,-472.656,-35.156,0.000
1587066424.471,-20.020,-244.629,-535.156,17.578,0.000
1587066424.475,-33.203,-7.812,-377.930,-14.648,0.000
1587066424.479,-51.270,-104.492,-481.934,-34.180,0.000
1587066424.483,-40.527,-186.035,-534.668,-24.414,0.000
1587066424.487,-7.812,70.312,-328.613,-12.695,0.000
1587066424.491,-23.438,202.148,-211.914,-11.230,0.000
1587066424.495,-71.777,42.969,-338.379,-31.738,0.000
1587066424.499,-75.684,-118.652,-469.238,-45.898,0.000
1587066424.503,-43.457,15.137,-329.590,-35.645,0.000
1587066424.507,-15.625,16.602,-320.801,-10.254,0.000
1587066424.510,-28.809,-116.211,-472.656,-22.461,0.000
1587066424.514,-43.457,-302.246,-673.828,-36.133,0.000
1587066424.518,-39.062,-119.629,-412.598,-32.715,0.000
1587066424.522,-28.809,221.191,-95.703,-20.996,0.000
1587066424.526,-36.621,31.738,-369.629,-5.859,0.000
1587066424.530,-64.453,-123.535,-455.566,-29.297,0.000
1587066424.534,-47.852,-11.719,-368.164,-35.156,0.000
1587066424.538,-20.020,80.078,-314.941,-7.324,0.000
1587066424.542,-32.715,30.762,-367.188,-3.906,0.000
1587066424.546,-70.801,-75.684,-417.480,-31.738,0.000
1587066424.550,-73.242,-22.949,-377.441,-48.340,0.000
1587066424.553,-34.668,6.836,-358.398,-26.367,0.000
1587066424.557,-17.090,-79.102,-414.551,-3.418,0.000
1587066424.561,-33.691,-347.168,-616.699,-7.812,0.000
1587066424.565,-66.895,-82.520,-437.500,-51.758,0.000
1587066424.569,-38.086,136.719,-285.645,-41.504,0.000
1587066424.573,-9.277,13.672,-362.305,-3.906,0.000
1587066424.577,-55.664,35.645,-335.449,-36.621,0.000
1587066424.581,-89.355,-3.418,-390.137,-67.871,0.000
1587066424.585,-54.199,-69.824,-422.852,-40.527,0.000
1587066424.589,-21.484,-32.715,-371.094,-13.184,0.000
1587066424.593,-49.316,13.672,-369.629,-28.809,0.000
1587066424.596,-88.379,-32.227,-369.629,-63.477,0.000
1587066424.600,-63.477,-116.699,-423.828,-55.664,0.000
1587066424.604,-10.254,-186.523,-503.418,-4.883,0.000
1587066424.608,-21.484,-37.109,-359.375,-9.277,0.000
1587066424.612,-61.035,104.492,-281.738,-54.199,0.000
1587066424.616,-55.664,-6.836,-378.906,-45.410,0.000
1587066424.620,-22.461,-30.762,-328.125,-6.836,0.000
1587066424.624,-34.180,102.051,-212.402,-6.836,0.000
1587066424.628,-83.984,115.723,-208.008,-46.387,0.000
1587066424.632,-93.750,-72.266,-400.879,-65.430,0.000
1587066424.635,-56.152,-112.793,-375.977,-50.293,0.000
1587066424.639,-27.344,33.203,-231.934,-31.738,0.000
1587066424.643,-49.805,-36.133,-375.000,-36.133,0.000
1587066424.647,-66.406,-247.070,-522.949,-40.039,0.000
1587066424.651,-44.434,-295.898,-554.199,-19.043,0.000
1587066424.655,-44.434,126.953,-130.371,-25.879,0.000
1587066424.659,-53.711,172.852,-105.469,-33.203,0.000
1587066424.663,-64.941,-156.738,-467.773,-37.109,0.000
1587066424.667,-61.035,-180.664,-467.773,-42.969,0.000
1587066424.671,-38.574,106.934,-248.535,-38.086,0.000
1587066424.675,-22.461,104.980,-268.555,-22.949,0.000
1587066424.678,-42.480,-158.203,-491.211,-20.996,0.000
1587066424.682,-61.035,-141.113,-479.492,-28.320,0.000
1587066424.686,-36.621,29.297,-346.680,-23.926,0.000
1587066424.690,-16.602,62.988,-314.941,-14.160,0.000
1587066424.694,-33.203,-206.055,-566.406,-13.184,0.000
1587066424.698,-64.941,-250.000,-592.285,-30.762,0.000
1587066424.702,-57.617,8.301,-379.395,-38.086,0.000
1587066424.706,-24.902,68.848,-343.750,-19.531,0.000
1587066424.710,-28.320,-219.238,-566.895,-8.301,0.000
1587066424.714,-70.801,-146.484,-472.656,-41.992,0.000
1587066424.718,-62.012,88.379,-356.934,-46.875,0.000
1587066424.721,-13.184,50.781,-353.027,-9.766,0.000
1587066424.725,-15.625,-17.090,-337.891,-4.883,0.000
1587066424.729,-56.152,-24.902,-376.953,-32.227,0.000
1587066424.733,-58.594,0.000,-384.277,-45.898,0.000
1587066424.737,-20.508,-24.414,-388.184,-24.414,0.000
1587066424.741,-10.742,-84.961,-414.551,-15.625,0.000
1587066424.745,-52.246,-123.047,-457.520,-38.574,0.000
1587066424.749,-76.660,7.324,-380.859,-64.453,0.000
1587066424.753,-36.621,5.371,-374.512,-40.527,0.000
1587066424.757,-9.766,-210.449,-526.855,-7.324,0.000
1587066424.760,-51.270,-96.680,-462.402,-37.109,0.000
1587066424.764,-73.730,-33.691,-433.105,-62.988,0.000
1587066424.768,-43.457,-22.949,-433.105,-54.199,0.000
1587066424.772,-16.602,140.137,-188.477,-34.668,0.000
1587066424.776,-28.320,141.113,-219.238,-37.598,0.000
1587066424.780,-46.387,-3.906,-373.535,-55.176,0.000
1587066424.784,-34.668,-117.676,-453.125,-24.902,0.000
1587066424.788,6.348,-80.078,-425.293,-1.953,0.000
1587066424.792,-12.207,37.598,-326.172,-21.484,0.000
1587066424.796,-55.176,-1.465,-373.535,-42.969,0.000
1587066424.800,-36.621,-223.145,-598.633,-34.668,0.000
1587066424.803,-17.090,-28.320,-357.422,-27.344,0.000
1587066424.807,-5.859,178.223,-164.062,-20.508,0.000
1587066424.811,-28.320,-16.113,-363.281,-22.949,0.000
1587066424.815,-23.926,-440.430,-670.898,-18.066,0.000
1587066424.819,-0.488,-237.793,-504.395,-20.020,0.000
1587066424.823,-15.137,183.105,-222.656,-28.320,0.000
1587066424.827,-38.574,43.457,-385.254,-36.133,0.000
1587066424.831,-54.688,-131.348,-481.445,-47.852,0.000
1587066424.835,-35.645,-145.996,-487.793,-26.367,0.000
1587066424.839,-11.719,-5.859,-388.672,-6.836,0.000
1587066424.843,-21.973,-58.105,-422.852,-15.625,0.000
1587066424.846,-46.875,-314.453,-599.609,-25.391,0.000
1587066424.850,-53.711,-72.266,-457.520,-49.316,0.000
1587066424.854,-16.602,63.477,-360.840,-40.039,0.000
1587066424.858,-11.230,22.461,-409.668,-29.785,0.000
1587066424.862,-49.805,24.902,-369.629,-56.152,0.000
1587066424.866,-55.176,53.711,-328.613,-71.777,0.000
1587066424.870,-27.344,124.512,-230.957,-48.340,0.000
1587066424.874,1.953,0.977,-340.820,-19.043,0.000
1587066424.878,-27.344,-124.023,-485.840,-37.109,0.000
1587066424.882,-73.242,-145.020,-460.938,-55.664,0.000
1587066424.885,-46.875,-106.934,-439.453,-49.805,0.000
1587066424.889,-8.301,-111.816,-486.816,-26.855,0.000
1587066424.893,-41.016,-79.102,-422.852,-29.297,0.000
1587066424.897,-92.285,108.398,-277.344,-64.453,0.000
1587066424.901,-62.500,77.148,-305.176,-65.430,0.000
1587066424.905,-19.043,29.297,-242.676,-35.156,0.000
1587066424.909,-37.598,114.258,-166.016,-38.574,0.000
1587066424.913,-65.918,37.598,-328.125,-67.871,0.000
1587066424.917,-60.059,-60.059,-408.691,-63.965,0.000
1587066424.921,-27.344,18.066,-264.648,-36.133,0.000
1587066424.925,-13.672,64.941,-248.535,-25.879,0.000
1587066424.928,-43.457,-104.492,-438.477,-39.551,0.000
1587066424.932,-52.734,-252.441,-573.730,-41.016,0.000
1587066424.936,-16.113,-269.043,-571.777,-16.113,0.000
1587066424.940,-23.438,139.648,-205.078,-30.762,0.000
1587066424.944,-54.688,165.527,-226.074,-52.734,0.000
1587066424.948,-52.734,-146.973,-503.906,-48.828,0.000
1587066424.952,-29.785,-54.199,-401.855,-42.480,0.000
1587066424.956,-20.508,175.293,-208.984,-32.227,0.000
1587066424.960,-32.715,84.473,-319.824,-26.855,0.000
1587066424.964,-52.246,-168.945,-505.371,-43.457,0.000
1587066424.968,-41.504,-62.988,-388.672,-49.805,0.000
1587066424.971,-15.137,117.676,-278.320,-17.090,0.000
1587066424.975,-27.344,17.578,-366.699,-11.230,0.000
1587066424.979,-49.805,-277.832,-582.520,-36.621,0.000
1587066424.983,-62.012,-185.547,-485.352,-55.664,0.000
1587066424.987,-36.621,201.172,-237.793,-51.270,0.000
1587066424.991,-4.883,107.422,-335.449,-22.949,0.000
1587066424.995,-42.969,-147.949,-465.820,-32.227,0.000
1587066424.999,-67.383,-14.648,-386.230,-61.523,0.000
1587066425.003,-27.832,167.480,-242.676,-36.621,0.000
1587066425.007,-9.277,136.230,-196.289,-17.090,0.000
1587066425.010,-37.109,-10.742,-326.660,-38.574,0.000
1587066425.014,-59.570,-37.109,-389.160,-63.477,0.000
1587066425.018,-37.598,9.277,-349.121,-56.641,0.000
1587066425.022,-0.488,-83.496,-405.762,-11.719,0.000
1587066425.026,-0.977,-344.727,-603.516,21.973,0.000
1587066425.030,-55.664,-123.535,-456.543,-27.832,0.000
1587066425.034,-61.035,131.348,-301.758,-61.523,0.000
1587066425.038,-4.395,54.688,-333.496,-19.531,0.000
1587066425.042,-4.395,-8.789,-341.797,-8.789,0.000
1587066425.046,-54.688,44.434,-312.500,-56.152,0.000
1587066425.050,-43.457,5.371,-375.000,-61.523,0.000
1587066425.053,-10.742,-25.879,-361.328,-27.832,0.000
1587066425.057,-25.391,70.312,-235.352,-29.297,0.000
1587066425.061,-57.617,50.781,-281.250,-51.270,0.000
1587066425.065,-71.777,-40.039,-367.676,-62.012,0.000
1587066425.069,-27.832,-179.688,-464.355,-30.762,0.000
1587066425.073,-13.672,-103.027,-388.672,-20.508,0.000
1587066425.077,-53.711,83.496,-290.527,-59.082,0.000
1587066425.081,-63.477,-38.086,-386.230,-76.172,0.000
1587066425.085,-28.809,-241.699,-561.035,-42.969,0.000
1587066425.089,-5.371,-20.508,-381.348,-28.320,0.000
1587066425.093,-33.203,157.715,-230.469,-55.664,0.000
1587066425.096,-61.035,-43.945,-376.465,-67.871,0.000
1587066425.100,-41.504,-144.043,-387.695,-64.453,0.000
1587066425.104,-23.926,80.566,-198.242,-56.152,0.000
1587066425.108,-35.156,65.430,-294.922,-47.852,0.000
1587066425.112,-51.758,-240.723,-571.777,-53.711,0.000
1587066425.116,-54.199,-296.387,-566.406,-60.059,0.000
1587066425.120,-33.203,-40.527,-371.094,-52.734,0.000
1587066425.124,-27.344,115.234,-320.312,-42.969,0.000
1587066425.128,-47.852,-121.094,-504.883,-41.504,0.000
1587066425.132,-63.965,-330.566,-554.199,-55.176,0.000
1587066425.135,-53.711,-52.246,-375.977,-68.359,0.000
1587066425.139,-31.250,153.809,-259.277,-52.246,0.000
1587066425.143,-47.363,19.043,-340.820,-42.969,0.000
1587066425.147,-78.125,-83.008,-416.992,-58.105,0.000
1587066425.151,-68.848,42.480,-312.500,-61.035,0.000
1587066425.155,-44.434,106.934,-199.707,-28.809,0.000
1587066425.159,-38.086,-78.125,-414.062,-16.113,0.000
1587066425.163,-67.871,-198.730,-515.625,-44.922,0.000
1587066425.167,-73.242,-141.113,-419.922,-54.199,0.000
1587066425.171,-34.668,5.859,-351.562,-35.156,0.000
1587066425.175,-21.973,-152.344,-533.203,-7.324,0.000
1587066425.178,-71.777,-172.852,-472.656,-30.762,0.000
1587066425.182,-92.773,85.938,-303.711,-71.777,0.000
1587066425.186,-43.945,57.617,-327.148,-42.480,0.000
1587066425.190,-18.555,7.812,-295.410,-17.578,0.000
1587066425.194,-51.270,45.898,-313.477,-35.645,0.000
1587066425.198,-69.336,-12.207,-373.047,-52.734,0.000
1587066425.202,-30.273,-49.805,-395.020,-38.086,0.000
1587066425.206,-11.719,-26.367,-360.352,-19.531,0.000
1587066425.210,-41.504,-96.680,-430.664,-26.855,0.000
1587066425.214,-68.848,-72.266,-414.062,-60.059,0.000
1587066425.218,-45.410,-78.613,-436.035,-48.828,0.000
1587066425.221,-1.953,-223.145,-498.535,10.742,0.000
1587066425.225,-16.602,22.461,-329.590,-3.418,0.000
1587066425.229,-52.734,-8.789,-367.676,-39.062,0.000
1587066425.233,-57.617,-142.578,-475.098,-49.805,0.000
1587066425.237,-34.180,59.570,-295.898,-40.039,0.000
1587066425.241,-23.926,177.246,-185.547,-32.715,0.000
1587066425.245,-38.574,35.645,-326.660,-40.527,0.000
1587066425.249,-53.711,-100.098,-456.055,-49.316,0.000
1587066425.253,-30.762,-43.457,-400.879,-43.457,0.000
1587066425.257,-2.930,-42.480,-397.949,-18.066,0.000
1587066425.260,-30.273,-73.242,-437.012,-33.691,0.000
1587066425.264,-48.340,-257.812,-616.699,-45.410,0.000
1587066425.268,-37.109,-126.953,-409.180,-44.922,0.000
1587066425.272,-28.320,236.816,-58.105,-44.922,0.000
1587066425.276,-19.531,79.590,-256.836,-24.902,0.000
1587066425.280,-44.434,-121.094,-410.156,-35.645,0.000
1587066425.284,-41.992,-41.016,-391.113,-36.133,0.000
1587066425.288,-2.930,73.242,-267.090,-8.789,0.000
1587066425.292,-4.883,72.266,-233.398,-5.859,0.000
1587066425.296,-38.086,-87.891,-388.672,-27.344,0.000
1587066425.300,-43.457,-61.523,-390.137,-39.062,0.000
1587066425.303,2.930,-11.719,-355.957,-17.090,0.000
1587066425.307,13.672,-68.848,-405.273,1.465,0.000
1587066425.311,-17.578,-339.844,-605.469,0.000,0.000
1587066425.315,-59.570,-81.543,-447.754,-51.270,0.000
1587066425.319,-33.203,155.762,-270.020,-44.922,0.000
1587066425.323,-2.441,7.812,-335.449,-13.184,0.000
1587066425.327,-39.062,22.461,-334.473,-33.691,0.000
1587066425.331,-65.430,19.043,-333.984,-60.059,0.000
1587066425.335,-45.410,-0.488,-349.121,-51.758,0.000
1587066425.339,-1.953,-4.395,-350.098,-12.207,0.000
1587066425.343,-9.766,-19.531,-367.188,-14.160,0.000
1587066425.346,-43.457,-56.641,-387.695,-45.898,0.000
1587066425.350,-41.504,-63.965,-428.223,-34.668,0.000
1587066425.354,-3.418,-164.551,-511.719,1.953,0.000
1587066425.358,-7.324,-49.805,-368.164,-5.371,0.000
1587066425.362,-65.430,142.578,-270.996,-51.270,0.000
1587066425.366,-69.336,38.574,-365.234,-56.152,0.000
1587066425.370,-21.973,-19.531,-351.562,-20.508,0.000
1587066425.374,-17.090,55.176,-315.918,-10.742,0.000
1587066425.378,-51.270,54.199,-351.562,-32.715,0.000
1587066425.382,-63.965,-77.148,-441.895,-41.992,0.000
1587066425.385,-39.551,-78.613,-377.930,-27.832,0.000
1587066425.389,-26.367,103.027,-231.934,-18.066,0.000
1587066425.393,-59.082,104.492,-262.207,-44.922,0.000
1587066425.397,-61.523,-180.664,-475.098,-49.316,0.000
1587066425.401,-32.227,-414.551,-651.367,-17.090,0.000
1587066425.405,-40.527,-1.953,-349.121,-31.738,0.000
1587066425.409,-64.941,255.371,-154.297,-53.711,0.000
1587066425.413,-75.684,-66.406,-389.648,-59.082,0.000
1587066425.417,-53.711,-168.945,-460.449,-53.711,0.000
1587066425.421,-32.715,105.957,-252.930,-42.480,0.000
1587066425.425,-24.902,145.508,-219.727,-27.832,0.000
1587066425.428,-31.250,-103.027,-422.852,-30.273,0.000
1587066425.432,-48.828,-98.633,-423.340,-51.270,0.000
1587066425.436,-28.320,115.723,-232.910,-46.875,0.000
1587066425.440,-12.207,99.609,-245.117,-36.133,0.000
1587066425.444,-21.484,-190.918,-516.113,-23.438,0.000
1587066425.448,-45.410,-231.934,-531.250,-42.969,0.000
1587066425.452,-41.504,67.871,-274.414,-48.828,0.000
1587066425.456,-7.812,91.797,-269.531,-19.043,0.000
1587066425.460,-17.578,-236.816,-545.898,-10.742,0.000
1587066425.464,-59.082,-146.484,-451.172,-43.945,0.000
1587066425.468,-48.828,114.258,-295.898,-57.617,0.000
1587066425.471,-16.602,75.195,-304.688,-22.461,0.000
1587066425.475,-31.738,-36.621,-332.520,-20.996,0.000
1587066425.479,-70.801,-56.152,-348.633,-59.570,0.000
1587066425.483,-67.383,-36.621,-366.699,-63.477,0.000
1587066425.487,-29.297,-5.859,-335.938,-31.250,0.000
1587066425.491,-22.461,-67.383,-379.395,-23.926,0.000
1587066425.495,-53.711,-119.629,-434.082,-48.340,0.000
1587066425.499,-72.754,-12.207,-378.418,-63.965,0.000
1587066425.503,-36.621,-7.812,-370.605,-40.039,0.000
1587066425.507,16.602,-261.719,-524.414,7.812,0.000
1587066425.510,-11.230,-121.582,-464.355,-21.484,0.000
1587066425.514,-58.105,16.113,-395.020,-60.059,0.000
1587066425.518,-34.180,-91.797,-450.684,-29.785,0.000
1587066425.522,-11.719,48.828,-296.387,-4.395,0.000
1587066425.526,-34.180,129.395,-257.812,-27.832,0.000
1587066425.530,-72.266,-59.570,-411.133,-64.941,0.000
1587066425.534,-55.176,-216.309,-527.832,-51.270,0.000
1587066425.538,0.000,-115.234,-402.832,-19.531,0.000
1587066425.542,-23.438,-35.156,-357.422,-24.414,0.000
1587066425.546,-69.824,-39.062,-390.137,-53.223,0.000
1587066425.550,-48.828,-259.277,-614.746,-41.504,0.000
1587066425.553,-25.391,-141.113,-458.984,-26.855,0.000
1587066425.557,-34.180,226.562,-157.715,-43.945,0.000
1587066425.561,-55.664,72.754,-322.754,-52.734,0.000
1587066425.565,-63.477,-119.629,-398.438,-47.363,0.000
1587066425.569,-42.969,36.133,-283.203,-35.156,0.000
1587066425.573,-22.949,140.137,-218.750,-29.297,0.000
1587066425.577,-32.227,-53.711,-391.113,-33.203,0.000
1587066425.581,-60.059,-172.363,-441.406,-43.945,0.000
1587066425.585,-44.922,-96.191,-388.672,-31.738,0.000
1587066425.589,-2.930,1.953,-358.887,-23.926,0.000
1587066425.593,-6.836,-98.145,-430.176,-27.832,0.000
1587066425.596,-37.598,-377.930,-615.723,-34.180,0.000
1587066425.600,-50.293,-109.375,-486.816,-51.270,0.000
1587066425.604,-21.973,45.410,-377.930,-28.809,0.000
1587066425.608,-22.949,-19.531,-389.160,-20.996,0.000
1587066425.612,-60.547,2.930,-374.512,-46.875,0.000
1587066425.616,-77.637,30.762,-349.609,-64.941,0.000
1587066425.620,-40.039,31.250,-332.031,-37.109,0.000
1587066425.624,-10.742,-20.996,-370.117,-11.719,0.000
1587066425.628,-37.109,-4.395,-350.098,-39.551,0.000
1587066425.632,-56.152,-102.051,-429.688,-51.758,0.000
1587066425.635,-27.344,-101.074,-421.875,-28.320,0.000
1587066425.639,13.184,-141.602,-481.445,6.836,0.000
1587066425.643,-30.273,-85.449,-405.273,-18.066,0.000
1587066425.647,-83.008,86.914,-308.105,-62.500,0.000
1587066425.651,-56.152,31.738,-346.191,-48.340,0.000
1587066425.655,-16.113,-2.441,-295.898,-11.230,0.000
1587066425.659,-31.738,73.242,-271.484,-17.090,0.000
1587066425.663,-67.871,35.645,-307.617,-52.734,0.000
1587066425.667,-58.594,-79.590,-400.391,-44.922,0.000
1587066425.671,-28.809,-47.363,-323.242,-16.602,0.000
1587066425.675,-20.996,85.449,-216.309,-12.695,0.000
1587066425.678,-47.852,-86.914,-404.297,-19.531,0.000
1587066425.682,-41.504,-262.207,-551.270,-28.809,0.000
1587066425.686,-2.441,-284.668,-550.781,-10.742,0.000
1587066425.690,-31.250,26.367,-329.102,-28.320,0.000
1587066425.694,-49.805,6.836,-393.066,-40.527,0.000
1587066425.698,-56.152,-189.941,-513.184,-40.039,0.000
1587066425.702,-46.875,15.625,-328.125,-41.992,0.000
1587066425.706,-26.855,185.059,-186.035,-30.762,0.000
1587066425.710,-41.504,66.406,-299.805,-26.855,0.000
1587066425.714,-63.965,-159.668,-478.516,-41.992,0.000
1587066425.718,-52.246,-73.242,-401.367,-50.293,0.000
1587066425.721,-22.461,124.512,-213.379,-26.855,0.000
1587066425.725,-9.277,-32.227,-367.188,-12.695,0.000
1587066425.729,-39.551,-356.934,-639.648,-16.113,0.000
1587066425.733,-70.312,-230.957,-494.629,-37.598,0.000
1587066425.737,-50.781,168.457,-236.816,-46.875,0.000
1587066425.741,-35.645,131.348,-268.555,-28.809,0.000
1587066425.745,-50.781,-87.891,-404.785,-33.203,0.000
1587066425.749,-53.223,-41.016,-397.461,-38.086,0.000
1587066425.753,-20.020,25.391,-346.191,-18.066,0.000
1587066425.757,5.371,-42.480,-394.043,5.371,0.000
1587066425.760,-21.484,-64.941,-366.699,-9.277,0.000
1587066425.764,-61.035,-8.301,-351.074,-45.898,0.000
1587066425.768,-39.062,55.664,-342.285,-41.504,0.000
1587066425.772,11.719,-69.336,-400.879,-1.953,0.000
1587066425.776,0.977,-285.156,-564.453,12.207,0.000
1587066425.780,-54.199,-49.316,-416.992,-38.086,0.000
1587066425.784,-60.547,126.465,-284.180,-48.828,0.000
1587066425.788,-22.949,14.160,-354.980,0.488,0.000
1587066425.792,-23.926,-104.980,-443.359,0.977,0.000
1587066425.796,-75.195,-47.852,-380.859,-50.781,0.000
1587066425.800,-78.125,-7.812,-379.395,-64.453,0.000
1587066425.803,-25.879,-53.711,-400.391,-23.438,0.000
1587066425.807,-14.160,-12.695,-396.973,-10.742,0.000
1587066425.811,-51.758,-60.059,-432.617,-41.504,0.000
1587066425.815,-62.500,-49.805,-403.320,-51.270,0.000
1587066425.819,-21.484,-107.422,-470.215,-14.160,0.000
1587066425.823,-27.344,-0.977,-338.867,-15.625,0.000
1587066425.827,-72.266,115.234,-268.066,-62.500,0.000
1587066425.831,-88.379,-3.418,-349.609,-82.520,0.000
1587066425.835,-46.387,-224.121,-522.461,-38.086,0.000
1587066425.839,-17.090,-55.664,-362.793,-12.695,0.000
1587066425.843,-49.316,170.410,-211.426,-36.133,0.000
1587066425.846,-76.660,-86.914,-432.129,-53.711,0.000
1587066425.850,-58.105,-180.664,-439.453,-39.551,0.000
1587066425.854,-29.785,86.426,-140.625,-17.578,0.000
1587066425.858,-27.832,147.461,-48.828,-17.578,0.000
1587066425.862,-47.852,-115.234,-404.785,-38.086,0.000
1587066425.866,-50.781,-317.871,-567.383,-34.668,0.000
1587066425.870,-24.414,-115.723,-379.395,-12.207,0.000
1587066425.874,-10.254,100.586,-273.926,-20.020,0.000
1587066425.878,-39.551,-60.547,-422.852,-39.062,0.000
1587066425.882,-60.059,-325.195,-529.297,-39.062,0.000
1587066425.885,-47.852,-101.074,-384.766,-38.086,0.000
1587066425.889,-29.297,150.391,-224.609,-29.785,0.000
1587066425.893,-44.922,12.207,-355.957,-27.832,0.000
1587066425.897,-78.613,-77.148,-406.250,-56.152,0.000
1587066425.901,-66.406,74.707,-280.762,-56.641,0.000
1587066425.905,-28.320,104.980,-253.418,-12.207,0.000
1587066425.909,-22.461,-92.285,-431.152,-5.371,0.000
1587066425.913,-53.223,-250.488,-528.809,-34.668,0.000
1587066425.917,-66.895,-69.824,-361.816,-56.152,0.000
1587066425.921,-26.367,175.293,-154.785,-42.969,0.000
1587066425.925,1.953,-137.207,-472.656,-2.930,0.000
1587066425.928,-43.945,-304.199,-576.660,-23.926,0.000
1587066425.932,-75.195,5.371,-354.980,-71.289,0.000
1587066425.936,-41.504,68.359,-332.031,-53.223,0.000
1587066425.940,-16.602,-15.625,-316.406,-25.879,0.000
1587066425.944,-47.363,6.836,-352.539,-43.457,0.000
1587066425.948,-71.777,-18.555,-407.715,-62.988,0.000
1587066425.952,-42.969,-42.480,-378.418,-47.852,0.000
1587066425.956,-11.719,-41.016,-317.383,-25.391,0.000
1587066425.960,-32.715,-90.332,-390.137,-35.645,0.000
1587066425.964,-78.613,-89.355,-426.270,-62.500,0.000
1587066425.968,-59.082,-128.418,-458.984,-41.016,0.000
1587066425.971,-2.441,-166.016,-446.289,-6.348,0.000
1587066425.975,-33.203,78.125,-300.293,-35.156,0.000
1587066425.979,-74.219,-4.883,-392.090,-55.664,0.000
1587066425.983,-60.059,-179.199,-511.230,-38.574,0.000
1587066425.987,-28.320,-133.301,-419.434,-16.602,0.000
1587066425.991,-31.738,168.945,-234.863,-36.621,0.000
1587066425.995,-67.383,120.117,-305.176,-57.617,0.000
1587066425.999,-59.082,-116.211,-497.070,-50.293,0.000
1587066426.003,-31.738,34.180,-343.262,-44.922,0.000
1587066426.007,-3.418,53.711,-290.527,-25.391,0.000
1587066426.010,-15.137,-130.859,-467.773,-18.555,0.000
1587066426.014,-51.758,-291.504,-647.949,-26.855,0.000
1587066426.018,-48.828,-98.145,-397.461,-34.180,0.000
1587066426.022,-40.527,247.559,-101.074,-38.574,0.000
1587066426.026,-49.805,142.090,-228.027,-35.645,0.000
1587066426.030,-79.590,-92.285,-372.070,-55.176,0.000
1587066426.034,-66.406,-10.742,-364.746,-66.406,0.000
1587066426.038,-21.484,168.457,-165.527,-32.715,0.000
1587066426.042,-7.324,47.363,-229.492,-13.184,0.000
1587066426.046,-29.785,-162.598,-444.336,-36.133,0.000
1587066426.050,-47.852,-124.512,-451.172,-44.922,0.000
1587066426.053,-12.695,-41.016,-372.070,-15.625,0.000
1587066426.057,13.184,-80.566,-404.297,7.812,0.000
1587066426.061,-8.789,-323.730,-593.750,-0.977,0.000
1587066426.065,-59.082,-32.227,-405.273,-46.875,0.000
1587066426.069,-41.992,125.977,-318.848,-35.645,0.000
1587066426.073,0.488,-28.809,-388.672,-11.230,0.000
1587066426.077,-25.879,68.848,-303.711,-39.062,0.000
1587066426.081,-60.547,64.941,-331.055,-60.059,0.000
1587066426.085,-49.316,67.383,-307.617,-46.387,0.000
1587066426.089,-22.461,32.227,-337.891,-12.695,0.000
1587066426.093,-39.551,15.625,-356.445,-24.414,0.000
1587066426.096,-68.848,-42.969,-374.512,-53.223,0.000
1587066426.100,-59.082,-124.023,-466.309,-37.109,0.000
1587066426.104,-10.742,-212.402,-565.918,2.441,0.000
1587066426.108,-15.137,-126.953,-430.664,-1.953,0.000
1587066426.112,-75.684,130.371,-291.992,-47.363,0.000
1587066426.116,-70.312,59.570,-360.352,-47.852,0.000
1587066426.120,-24.414,-31.738,-381.348,-13.184,0.000
1587066426.124,-12.207,158.203,-171.875,2.930,0.000
1587066426.128,-30.762,150.879,-214.355,-28.320,0.000
1587066426.132,-62.012,-57.617,-424.805,-52.734,0.000
1587066426.135,-41.992,-78.125,-343.750,-27.832,0.000
1587066426.139,-9.766,84.961,-271.973,-11.230,0.000
1587066426.143,-33.691,107.910,-302.246,-29.297,0.000
1587066426.147,-52.246,-169.922,-479.980,-41.016,0.000
1587066426.151,-20.508,-363.281,-625.000,-8.789,0.000
1587066426.155,-9.277,65.430,-296.875,-12.207,0.000
1587066426.159,-34.668,172.852,-279.785,-36.621,0.000
1587066426.163,-62.012,-165.527,-536.133,-36.133,0.000
1587066426.167,-62.500,-154.297,-474.121,-35.645,0.000
1587066426.171,-31.250,120.117,-262.207,-31.738,0.000
1587066426.175,-32.227,125.000,-283.691,-28.320,0.000
1587066426.178,-64.453,-133.301,-482.910,-39.062,0.000
1587066426.182,-69.336,-102.051,-457.520,-54.199,0.000
1587066426.186,-43.457,154.297,-157.227,-47.363,0.000
1587066426.190,-25.391,138.184,-42.969,-29.297,0.000
1587066426.194,-37.109,-227.539,-466.797,-17.578,0.000
1587066426.198,-62.500,-259.277,-545.410,-44.434,0.000
1587066426.202,-44.922,126.953,-255.371,-63.965,0.000
1587066426.206,-11.719,143.066,-183.105,-31.250,0.000
1587066426.210,-25.391,-204.102,-516.602,-13.184,0.000
1587066426.214,-72.266,-140.625,-491.211,-50.293,0.000
1587066426.218,-60.547,-1.953,-349.121,-43.457,0.000
1587066426.221,-10.254,-45.410,-375.000,-1.953,0.000
1587066426.225,-6.348,-7.812,-327.637,5.371,0.000
1587066426.229,-56.152,28.809,-325.684,-28.320,0.000
1587066426.233,-71.289,53.711,-334.961,-62.500,0.000
1587066426.237,-28.809,10.254,-349.609,-40.039,0.000
1587066426.241,-12.207,-128.418,-406.250,-15.137,0.000
1587066426.245,-54.199,-76.660,-377.930,-57.617,0.000
1587066426.249,-82.031,65.430,-327.148,-79.102,0.000
1587066426.253,-33.691,-52.246,-409.180,-37.598,0.000
1587066426.257,7.324,-262.207,-482.910,-3.418,0.000
1587066426.260,-44.922,-87.402,-389.648,-40.039,0.000
1587066426.264,-80.566,35.645,-359.863,-64.941,0.000
1587066426.268,-42.480,-7.812,-350.098,-45.410,0.000
1587066426.272,-21.484,83.496,-192.871,-37.598,0.000
1587066426.276,-39.062,51.758,-298.828,-22.949,0.000
1587066426.280,-59.570,-172.852,-506.348,-29.785,0.000
1587066426.284,-54.688,-186.035,-508.301,-47.852,0.000
1587066426.288,-17.090,-32.227,-416.992,-25.391,0.000
1587066426.292,-20.020,34.180,-379.395,-12.207,0.000
1587066426.296,-54.199,-16.602,-400.391,-41.016,0.000
1587066426.300,-38.086,-157.715,-590.820,-40.039,0.000
1587066426.303,-19.043,62.988,-308.594,-23.926,0.000
1587066426.307,-22.461,179.688,-136.719,-25.879,0.000
1587066426.311,-46.875,-21.973,-361.816,-45.410,0.000
1587066426.315,-44.434,-358.887,-611.328,-33.691,0.000
1587066426.319,-29.785,-123.047,-448.242,-27.832,0.000
1587066426.323,-21.973,228.027,-213.867,-33.203,0.000
1587066426.327,-30.762,57.129,-346.191,-35.645,0.000
1587066426.331,-49.316,-130.371,-464.355,-45.898,0.000
1587066426.335,-31.738,-110.352,-428.711,-37.109,0.000
1587066426.339,-2.930,-7.812,-350.586,-15.625,0.000
1587066426.343,-14.648,-63.965,-427.246,-14.160,0.000
1587066426.346,-61.523,-104.492,-446.777,-43.457,0.000
1587066426.350,-48.340,-57.129,-447.266,-44.434,0.000
1587066426.354,-15.137,27.832,-374.512,-18.066,0.000
1587066426.358,-24.902,-32.227,-427.734,-13.672,0.000
1587066426.362,-45.898,-285.645,-564.453,-31.738,0.000
1587066426.366,-86.426,-4.395,-393.066,-67.871,0.000
1587066426.370,-57.129,151.367,-291.992,-42.969,0.000
1587066426.374,-27.344,-2.930,-404.785,-13.672,0.000
1587066426.378,-65.430,28.320,-380.859,-38.086,0.000
1587066426.382,-72.754,-41.504,-406.250,-36.621,0.000
1587066426.385,-32.715,-80.566,-433.105,-23.926,0.000
1587066426.389,14.160,-116.211,-491.211,-3.418,0.000
1587066426.393,-26.855,-133.301,-462.402,-9.277,0.000
1587066426.397,-74.219,25.879,-383.789,-50.293,0.000
1587066426.401,-42.480,84.473,-338.867,-40.527,0.000
1587066426.405,-2.930,94.727,-241.211,-12.695,0.000
1587066426.409,-20.020,102.539,-286.133,-26.855,0.000
1587066426.413,-54.199,-7.324,-396.973,-44.922,0.000
1587066426.417,-46.875,-74.707,-432.129,-36.621,0.000
1587066426.421,-20.508,8.789,-285.156,-22.949,0.000
1587066426.425,-13.672,92.285,-255.859,-26.855,0.000
1587066426.428,-44.434,-73.242,-413.574,-53.223,0.000
1587066426.432,-63.477,-257.324,-540.527,-52.734,0.000
1587066426.436,-20.508,-306.641,-593.750,-9.277,0.000
1587066426.440,-16.602,122.559,-271.973,-13.672,0.000
1587066426.444,-38.086,123.535,-310.059,-29.297,0.000
1587066426.448,-34.180,-163.574,-490.723,-36.133,0.000
1587066426.452,-11.230,-2.930,-348.633,-27.832,0.000
1587066426.456,3.906,123.047,-278.320,1.465,0.000
1587066426.460,-12.695,78.613,-332.520,1.953,0.000
1587066426.464,-37.109,-97.168,-454.102,-21.484,0.000
1587066426.468,-25.391,-37.598,-381.348,-24.414,0.000
1587066426.471,2.441,125.488,-258.789,-0.977,0.000
1587066426.475,2.441,31.250,-357.910,0.000,0.000
1587066426.479,-29.297,-247.559,-566.895,-20.996,0.000
1587066426.483,-47.363,-163.574,-458.008,-40.039,0.000
1587066426.487,-27.344,196.777,-223.145,-32.227,0.000
1587066426.491,-17.090,150.391,-266.602,-10.742,0.000
1587066426.495,-40.527,-97.656,-415.527,-30.273,0.000
1587066426.499,-59.082,-32.715,-390.625,-56.152,0.000
1587066426.503,-35.156,132.324,-257.812,-38.574,0.000
1587066426.507,-8.789,76.660,-270.508,-9.277,0.000
1587066426.510,-27.832,-149.414,-418.457,-17.090,0.000
1587066426.514,-62.988,-123.047,-416.992,-47.363,0.000
1587066426.518,-43.945,97.656,-293.457,-40.039,0.000
1587066426.522,-4.883,-20.508,-396.484,-2.441,0.000
1587066426.526,-6.836,-352.539,-657.715,6.348,0.000
1587066426.530,-63.477,-121.094,-480.957,-44.922,0.000
1587066426.534,-65.430,128.418,-308.594,-47.363,0.000
1587066426.538,13.672,17.090,-394.043,-1.465,0.000
1587066426.542,0.000,-44.434,-396.973,-6.836,0.000
1587066426.546,-65.918,17.578,-344.727,-44.922,0.000
1587066426.550,-70.312,-1.465,-394.531,-52.734,0.000
1587066426.553,-30.273,-13.672,-372.070,-26.855,0.000
1587066426.557,-15.137,75.684,-240.723,-15.137,0.000
1587066426.561,-57.617,40.039,-311.035,-40.039,0.000
1587066426.565,-80.566,-61.035,-413.086,-51.270,0.000
1587066426.569,-49.316,-125.977,-446.777,-26.855,0.000
1587066426.573,-29.785,-109.375,-436.035,-16.113,0.000
1587066426.577,-65.918,-35.156,-359.863,-50.781,0.000
1587066426.581,-83.496,-22.461,-371.094,-74.219,0.000
1587066426.585,-45.410,-246.094,-603.027,-43.457,0.000
1587066426.589,-34.668,-35.645,-302.734,-35.156,0.000
1587066426.593,-55.664,197.754,-96.680,-56.152,0.000
1587066426.596,-67.383,-48.828,-384.766,-68.359,0.000
1587066426.600,-57.129,-93.750,-367.676,-65.430,0.000
1587066426.604,-17.090,78.125,-242.676,-38.574,0.000
1587066426.608,-20.508,80.566,-292.969,-36.133,0.000
1587066426.612,-68.359,-83.984,-421.387,-53.711,0.000
1587066426.616,-64.941,-260.742,-549.805,-36.621,0.000
1587066426.620,-35.156,-20.508,-275.879,-32.227,0.000
1587066426.624,-34.180,217.773,3.418,-38.574,0.000
1587066426.628,-48.828,-85.938,-376.953,-39.062,0.000
1587066426.632,-59.082,-308.594,-514.648,-50.293,0.000
1587066426.635,-37.598,-43.945,-342.773,-57.129,0.000
1587066426.639,-4.395,125.977,-275.391,-36.133,0.000
1587066426.643,-27.344,8.789,-353.027,-38.086,0.000
1587066426.647,-61.035,-84.961,-413.086,-62.500,0.000
1587066426.651,-44.922,20.020,-339.844,-47.852,0.000
1587066426.655,-14.160,86.426,-273.438,-29.785,0.000
1587066426.659,-21.484,-59.082,-386.230,-32.227,0.000
1587066426.663,-45.410,-202.148,-498.535,-48.828,0.000
1587066426.667,-46.387,-90.332,-391.113,-60.059,0.000
1587066426.671,-22.461,124.023,-221.680,-54.688,0.000
1587066426.675,12.207,-169.922,-502.930,-22.461,0.000
1587066426.678,-42.480,-278.809,-512.695,-39.062,0.000
1587066426.682,-81.543,0.977,-371.582,-77.637,0.000
1587066426.686,-26.855,-2.441,-431.152,-46.387,0.000
1587066426.690,-12.695,2.441,-310.059,-27.832,0.000
1587066426.694,-54.688,43.945,-308.594,-62.988,0.000
1587066426.698,-83.496,26.367,-359.375,-87.891,0.000
1587066426.702,-60.059,70.312,-286.621,-67.383,0.000
1587066426.706,-16.602,58.105,-261.230,-36.133,0.000
1587066426.710,-29.785,-78.125,-406.250,-33.203,0.000
1587066426.714,-72.266,-79.590,-410.645,-55.664,0.000
1587066426.718,-61.035,-59.082,-427.246,-55.176,0.000
1587066426.721,-16.113,-236.328,-537.598,-12.695,0.000
1587066426.725,-24.414,9.277,-355.957,-19.531,0.000
1587066426.729,-57.129,-7.324,-407.227,-48.828,0.000
1587066426.733,-49.316,-128.418,-496.094,-53.223,0.000
1587066426.737,-30.762,97.168,-243.164,-47.363,0.000
1587066426.741,-29.785,170.898,-201.660,-37.598,0.000
1587066426.745,-48.828,-62.988,-450.684,-47.363,0.000
1587066426.749,-60.547,-190.430,-540.527,-62.012,0.000
1587066426.753,-47.363,24.414,-333.008,-55.664,0.000
1587066426.757,-27.832,60.547,-318.848,-35.156,0.000
1587066426.760,-55.176,-62.012,-426.270,-55.176,0.000
1587066426.764,-85.449,-218.262,-560.059,-69.336,0.000
1587066426.768,-66.895,-80.566,-407.227,-60.547,0.000
1587066426.772,-45.898,249.512,-33.203,-58.594,0.000
1587066426.776,-56.641,111.816,-138.184,-52.246,0.000
1587066426.780,-83.984,-136.719,-425.781,-69.336,0.000
1587066426.784,-98.633,-22.461,-386.230,-100.586,0.000
1587066426.788,-94.727,160.156,-191.406,-104.980,0.000
1587066426.792,-107.910,45.410,-242.676,-108.887,0.000
1587066426.796,-149.414,-167.969,-396.484,-145.996,0.000
1587066426.800,-173.828,-130.371,-409.668,-172.852,0.000
1587066426.803,-169.922,-36.133,-346.680,-166.504,0.000
1587066426.807,-163.574,-106.445,-414.062,-164.551,0.000
1587066426.811,-203.613,-414.062,-639.160,-185.547,0.000
1587066426.815,-276.367,-146.973,-470.703,-246.094,0.000
1587066426.819,-249.023,100.586,-330.566,-238.281,0.000
1587066426.823,-213.379,-13.184,-384.277,-205.566,0.000
1587066426.827,-258.301,11.230,-354.492,-239.258,0.000
1587066426.831,-288.086,-20.996,-381.836,-263.672,0.000
1587066426.835,-257.812,-46.875,-373.535,-243.652,0.000
1587066426.839,-210.938,-43.457,-380.859,-211.426,0.000
1587066426.843,-221.191,-25.879,-378.906,-209.473,0.000
1587066426.846,-265.137,-21.484,-352.539,-234.375,0.000
1587066426.850,-244.141,-98.145,-432.617,-227.539,0.000
1587066426.854,-168.945,-191.406,-501.465,-172.363,0.000
1587066426.858,-171.875,-104.980,-411.133,-158.691,0.000
1587066426.862,-209.961,40.527,-362.305,-190.918,0.000
1587066426.866,-185.059,-35.645,-438.477,-176.758,0.000
1587066426.870,-132.812,-59.570,-420.410,-129.883,0.000
1587066426.874,-107.910,103.027,-313.477,-113.281,0.000
1587066426.878,-106.445,73.242,-374.023,-101.074,0.000
1587066426.882,-87.891,-83.984,-447.754,-77.148,0.000
