timestamps,TP9,AF7,AF8,TP10,Right AUX
1587066715.534,-25.391,-154.785,-194.336,-15.625,0.000
1587066715.538,-51.270,-495.605,-335.449,-33.691,0.000
1587066715.542,-43.457,-39.062,-104.980,-36.133,0.000
1587066715.546,-21.484,311.523,122.559,-9.766,0.000
1587066715.550,-24.902,-31.250,-103.516,1.465,0.000
1587066715.553,-48.340,-565.918,-398.926,-24.414,0.000
1587066715.557,-53.223,-179.688,-206.543,-46.387,0.000
1587066715.561,-10.742,328.125,103.027,-18.066,0.000
1587066715.565,9.766,-268.066,-249.512,22.461,0.000
1587066715.569,-42.480,-353.516,-204.102,-28.320,0.000
1587066715.573,-68.359,97.168,42.969,-77.148,0.000
1587066715.577,-26.367,-51.270,-43.945,-43.457,0.000
1587066715.581,-9.766,54.199,36.621,-27.832,0.000
1587066715.585,-52.246,208.496,53.223,-55.176,0.000
1587066715.589,-70.801,126.465,40.527,-73.242,0.000
1587066715.593,-41.016,35.156,-66.406,-51.270,0.000
1587066715.596,-26.855,68.848,-27.344,-38.574,0.000
1587066715.600,-44.922,-91.309,-99.121,-40.527,0.000
1587066715.604,-71.289,-268.066,-284.668,-61.523,0.000
1587066715.608,-60.059,-248.535,-249.023,-62.012,0.000
1587066715.612,-18.555,-639.160,-344.238,-24.902,0.000
1587066715.616,-40.039,1.953,-11.230,-47.363,0.000
1587066715.620,-80.078,198.242,4.883,-78.613,0.000
1587066715.624,-78.125,-302.734,-298.340,-77.148,0.000
1587066715.628,-50.293,4.395,-32.227,-59.570,0.000
1587066715.632,-45.410,402.832,170.898,-47.363,0.000
1587066715.635,-56.641,-37.109,-161.133,-63.477,0.000
1587066715.639,-59.570,-385.254,-367.676,-60.547,0.000
1587066715.643,-45.898,125.977,25.879,-36.133,0.000
1587066715.647,-17.090,243.164,116.211,-27.832,0.000
1587066715.651,-34.180,-148.926,-180.176,-31.738,0.000
1587066715.655,-55.664,-668.945,-487.305,-32.715,0.000
1587066715.659,-37.109,-503.418,-279.785,-34.180,0.000
1587066715.663,-24.902,396.484,177.246,-44.434,0.000
1587066715.667,-36.133,413.574,96.680,-46.875,0.000
1587066715.671,-61.523,-154.297,-202.148,-56.152,0.000
1587066715.675,-69.336,81.055,-9.277,-64.453,0.000
1587066715.678,-29.785,487.305,195.312,-47.363,0.000
1587066715.682,-13.184,281.738,37.598,-19.043,0.000
1587066715.686,-50.781,-25.391,-80.078,-33.691,0.000
1587066715.690,-52.246,-28.320,-41.016,-52.734,0.000
1587066715.694,-21.484,69.336,57.129,-29.297,0.000
1587066715.698,-11.230,-55.664,-4.395,-11.230,0.000
1587066715.702,-29.297,-701.172,-381.836,-11.230,0.000
1587066715.706,-56.152,-355.957,-203.613,-43.457,0.000
1587066715.710,-31.738,264.160,106.445,-41.016,0.000
1587066715.714,-5.859,258.789,74.707,-11.719,0.000
1587066715.718,-35.156,153.320,65.430,-15.625,0.000
1587066715.721,-62.500,145.508,72.754,-34.668,0.000
1587066715.725,-25.879,129.395,48.340,-18.555,0.000
1587066715.729,16.602,-5.371,-26.367,11.719,0.000
1587066715.733,-25.391,199.707,74.219,-7.812,0.000
1587066715.737,-59.570,143.066,11.719,-38.574,0.000
1587066715.741,-41.992,-302.734,-312.012,-32.227,0.000
1587066715.745,-10.254,-600.098,-437.500,0.977,0.000
1587066715.749,-33.203,-474.609,-271.973,-26.367,0.000
1587066715.753,-78.125,-168.945,-184.082,-75.684,0.000
1587066715.757,-69.336,-310.547,-346.680,-66.895,0.000
1587066715.760,-36.133,-367.188,-297.852,-33.203,0.000
1587066715.764,-32.715,241.211,84.961,-29.297,0.000
1587066715.768,-55.176,397.949,132.812,-44.434,0.000
1587066715.772,-68.848,40.527,-37.109,-59.082,0.000
1587066715.776,-51.758,-2.441,-51.758,-50.781,0.000
1587066715.780,-22.949,362.305,158.691,-27.832,0.000
1587066715.784,-32.715,435.059,133.301,-43.457,0.000
1587066715.788,-51.270,-256.348,-287.598,-51.758,0.000
1587066715.792,-36.133,-647.949,-350.586,-37.109,0.000
1587066715.796,-32.715,203.613,127.441,-43.457,0.000
1587066715.800,-47.852,590.332,178.223,-30.762,0.000
1587066715.803,-60.547,-33.691,-161.133,-31.250,0.000
1587066715.807,-55.176,-322.754,-303.223,-50.293,0.000
1587066715.811,-30.762,-28.809,-128.418,-35.156,0.000
1587066715.815,-27.832,324.219,99.121,-32.715,0.000
1587066715.819,-52.734,34.668,-91.797,-49.805,0.000
1587066715.823,-56.641,-175.293,-141.113,-50.781,0.000
1587066715.827,-22.949,146.973,78.613,-36.621,0.000
1587066715.831,-12.695,430.664,167.480,-29.297,0.000
1587066715.835,-30.762,-170.410,-197.266,-34.180,0.000
1587066715.839,-47.852,-587.402,-382.324,-50.293,0.000
1587066715.843,-33.691,-35.156,18.066,-30.273,0.000
1587066715.846,-1.465,93.750,65.430,2.441,0.000
1587066715.850,-9.277,-491.211,-366.211,-2.441,0.000
1587066715.854,-53.223,-345.215,-175.781,-39.062,0.000
1587066715.858,-46.875,307.129,173.340,-41.504,0.000
1587066715.862,-1.953,372.070,102.051,-4.395,0.000
1587066715.866,-8.789,78.125,-62.012,3.418,0.000
1587066715.870,-51.758,-132.812,-129.395,-18.066,0.000
1587066715.874,-55.176,46.387,-19.043,-32.227,0.000
1587066715.878,-13.184,200.195,64.453,-13.184,0.000
1587066715.882,-6.348,-110.840,-190.918,-9.766,0.000
1587066715.885,-41.504,-282.227,-308.105,-37.598,0.000
1587066715.889,-60.547,33.203,-64.941,-53.711,0.000
1587066715.893,-28.809,-69.824,-91.797,-30.762,0.000
1587066715.897,0.000,-512.207,-282.715,9.277,0.000
1587066715.901,-40.527,-104.004,-56.152,-23.438,0.000
1587066715.905,-61.523,-30.762,-145.020,-62.012,0.000
1587066715.909,-37.598,-228.027,-300.781,-44.434,0.000
1587066715.913,-15.137,22.461,-18.555,-26.855,0.000
1587066715.917,-28.320,293.457,146.973,-32.715,0.000
1587066715.921,-65.918,103.516,-26.367,-43.457,0.000
1587066715.925,-42.480,-264.648,-281.738,-20.508,0.000
1587066715.928,-4.883,-37.598,-27.832,-1.953,0.000
1587066715.932,-15.625,149.414,105.957,-7.324,0.000
1587066715.936,-51.758,-58.105,-100.098,-20.508,0.000
1587066715.940,-39.062,-656.250,-462.402,-12.695,0.000
1587066715.944,-12.695,-357.422,-191.895,-4.883,0.000
1587066715.948,-27.832,460.449,191.895,-13.672,0.000
1587066715.952,-55.664,206.055,-14.160,-30.762,0.000
1587066715.956,-56.152,-227.051,-201.660,-36.133,0.000
1587066715.960,-12.207,163.086,50.781,-17.090,0.000
1587066715.964,2.441,457.031,162.109,-12.207,0.000
1587066715.968,-31.738,208.496,-0.977,-32.715,0.000
1587066715.971,-50.781,-33.691,-100.586,-48.828,0.000
1587066715.975,-24.414,-140.137,-153.809,-27.832,0.000
1587066715.979,5.859,166.504,64.941,-14.648,0.000
1587066715.983,-6.836,79.590,-32.715,-19.531,0.000
1587066715.987,-36.133,-722.656,-403.320,-24.414,0.000
1587066715.991,-42.480,-129.395,-18.555,-45.410,0.000
1587066715.995,-8.301,520.508,210.449,-20.020,0.000
1587066715.999,1.953,185.547,-77.637,-2.930,0.000
1587066716.003,-35.156,-93.750,-156.250,-31.250,0.000
1587066716.007,-39.062,-18.555,-63.477,-38.086,0.000
1587066716.010,3.906,165.039,52.246,-6.836,0.000
1587066716.014,20.996,20.996,-69.336,3.418,0.000
1587066716.018,-24.414,-20.508,-61.523,-30.762,0.000
1587066716.022,-49.316,-237.793,-228.516,-41.992,0.000
1587066716.026,-14.648,-211.914,-258.789,-13.184,0.000
1587066716.030,13.184,-321.777,-209.473,11.719,0.000
1587066716.034,-29.785,-536.133,-285.645,-15.137,0.000
1587066716.038,-70.801,-101.562,-89.844,-51.758,0.000
1587066716.042,-39.551,-42.969,-110.840,-30.273,0.000
1587066716.046,-4.395,-158.203,-129.883,-13.184,0.000
1587066716.050,-24.902,137.695,32.715,-27.832,0.000
1587066716.053,-60.547,332.031,110.840,-57.617,0.000
1587066716.057,-38.574,83.008,-13.672,-49.316,0.000
1587066716.061,-7.324,94.238,30.273,-12.207,0.000
1587066716.065,-12.207,331.543,118.164,-14.648,0.000
1587066716.069,-36.621,-95.703,-194.336,-32.227,0.000
1587066716.073,-46.875,-535.645,-411.133,-40.039,0.000
1587066716.077,-13.672,-233.398,-135.254,-16.113,0.000
1587066716.081,-0.977,372.559,171.875,-5.859,0.000
1587066716.085,-45.410,412.109,106.934,-41.992,0.000
1587066716.089,-62.500,-214.844,-213.379,-52.734,0.000
1587066716.093,-30.273,-602.539,-262.695,-36.133,0.000
1587066716.096,-17.578,274.414,191.895,-38.086,0.000
1587066716.100,-34.668,361.328,89.355,-44.922,0.000
1587066716.104,-54.688,-358.887,-348.633,-47.852,0.000
1587066716.108,-50.293,-29.297,-80.078,-43.945,0.000
1587066716.112,-22.461,463.379,230.469,-40.039,0.000
1587066716.116,-20.508,101.562,-70.801,-37.598,0.000
1587066716.120,-44.434,-643.066,-484.863,-42.480,0.000
1587066716.124,-50.781,-734.863,-439.941,-50.293,0.000
1587066716.128,-32.715,-51.758,-71.777,-41.992,0.000
1587066716.132,-16.113,318.848,104.980,-32.227,0.000
1587066716.135,-51.758,-19.531,-130.371,-43.457,0.000
1587066716.139,-75.195,-82.520,-179.199,-65.430,0.000
1587066716.143,-36.621,382.324,129.395,-44.434,0.000
1587066716.147,-19.531,480.957,139.160,-11.719,0.000
1587066716.151,-57.617,-41.504,-181.152,-48.340,0.000
1587066716.155,-84.473,-199.219,-262.695,-82.520,0.000
1587066716.159,-57.129,-56.152,-182.617,-59.082,0.000
1587066716.163,-22.949,-171.875,-181.152,-31.250,0.000
1587066716.167,-40.527,-506.836,-314.941,-39.062,0.000
1587066716.171,-83.008,-318.848,-259.277,-66.406,0.000
1587066716.175,-62.012,83.008,-73.730,-60.547,0.000
1587066716.178,-13.672,122.559,9.766,-30.762,0.000
1587066716.182,-29.785,81.543,17.090,-35.156,0.000
1587066716.186,-71.289,204.102,77.637,-57.129,0.000
1587066716.190,-64.453,227.539,70.312,-54.199,0.000
1587066716.194,-22.949,130.371,46.387,-26.855,0.000
1587066716.198,-12.207,166.016,53.223,-18.555,0.000
1587066716.202,-44.922,329.590,128.418,-44.434,0.000
1587066716.206,-47.852,168.945,14.648,-44.434,0.000
1587066716.210,-14.160,-222.168,-265.625,-6.836,0.000
1587066716.214,-10.254,31.738,-30.273,4.395,0.000
1587066716.218,-42.969,206.543,65.430,-35.156,0.000
1587066716.221,-68.848,-268.555,-314.453,-61.035,0.000
1587066716.225,-47.852,-659.180,-436.523,-37.109,0.000
1587066716.229,-21.973,-152.344,-19.043,-24.902,0.000
1587066716.233,-34.180,309.082,138.184,-38.086,0.000
1587066716.237,-57.129,-156.738,-160.645,-41.992,0.000
1587066716.241,-46.875,-385.742,-259.766,-31.250,0.000
1587066716.245,-18.555,144.531,70.312,-22.949,0.000
1587066716.249,-8.301,390.625,147.949,-16.113,0.000
1587066716.253,-34.180,-97.656,-151.367,-21.973,0.000
1587066716.257,-54.199,-567.871,-357.910,-44.434,0.000
1587066716.260,-32.227,-311.523,-247.070,-45.898,0.000
1587066716.264,-29.297,193.359,41.504,-37.109,0.000
1587066716.268,-55.176,-69.336,-121.094,-27.344,0.000
1587066716.272,-58.105,-780.762,-499.512,-18.066,0.000
1587066716.276,-41.504,-272.461,-163.086,-25.879,0.000
1587066716.280,-30.273,295.898,149.902,-18.555,0.000
1587066716.284,-46.875,38.086,-104.492,-12.695,0.000
1587066716.288,-69.336,-115.723,-183.105,-43.945,0.000
1587066716.292,-56.641,196.777,72.754,-58.594,0.000
1587066716.296,-23.438,528.809,201.660,-33.203,0.000
1587066716.300,-23.438,245.605,-33.203,-24.414,0.000
1587066716.303,-53.711,-276.855,-313.965,-43.457,0.000
1587066716.307,-63.477,-149.902,-192.383,-68.848,0.000
1587066716.311,-30.273,321.289,98.145,-54.199,0.000
1587066716.315,-0.488,-172.363,-196.777,-8.301,0.000
1587066716.319,-35.645,-313.477,-162.598,-27.344,0.000
1587066716.323,-51.270,218.262,110.352,-53.223,0.000
1587066716.327,-9.766,341.797,113.770,-28.320,0.000
1587066716.331,1.465,291.504,127.441,-19.531,0.000
1587066716.335,-35.156,41.504,-62.500,-38.086,0.000
1587066716.339,-63.477,-77.637,-147.461,-56.152,0.000
1587066716.343,-47.363,176.270,87.402,-43.457,0.000
1587066716.346,-25.391,179.688,126.953,-31.738,0.000
1587066716.350,-24.902,-103.516,-123.535,-23.926,0.000
1587066716.354,-49.805,-171.875,-234.375,-24.902,0.000
1587066716.358,-38.574,-101.562,-109.375,-30.273,0.000
1587066716.362,2.441,-463.867,-231.445,2.930,0.000
1587066716.366,-28.320,189.941,79.590,-17.578,0.000
1587066716.370,-67.383,401.367,107.910,-55.664,0.000
1587066716.374,-52.246,-135.254,-220.215,-44.434,0.000
1587066716.378,-18.555,77.637,6.348,-30.273,0.000
1587066716.382,-17.090,440.918,153.809,-27.344,0.000
1587066716.385,-45.898,198.730,12.207,-40.527,0.000
1587066716.389,-54.688,-208.496,-212.891,-50.293,0.000
1587066716.393,-41.992,-89.355,-137.207,-40.527,0.000
1587066716.397,-36.133,80.078,45.898,-35.645,0.000
1587066716.401,-65.918,-77.148,-109.863,-62.500,0.000
1587066716.405,-83.008,-670.410,-508.301,-65.918,0.000
1587066716.409,-63.477,-743.652,-390.137,-50.293,0.000
1587066716.413,-59.082,247.070,156.250,-68.848,0.000
1587066716.417,-75.195,428.223,107.422,-81.543,0.000
1587066716.421,-98.145,-100.098,-144.531,-92.773,0.000
1587066716.425,-86.914,46.875,-1.953,-88.379,0.000
1587066716.428,-52.246,424.805,180.664,-58.105,0.000
1587066716.432,-56.641,328.613,71.289,-56.152,0.000
1587066716.436,-86.914,-2.930,-66.406,-73.730,0.000
1587066716.440,-78.613,23.438,-8.301,-71.289,0.000
1587066716.444,-43.945,105.469,64.941,-45.898,0.000
1587066716.448,-35.645,-110.840,-72.754,-27.832,0.000
1587066716.452,-70.801,-749.023,-411.133,-42.969,0.000
1587066716.456,-105.469,-311.035,-141.113,-86.914,0.000
1587066716.460,-71.289,396.484,177.246,-66.406,0.000
1587066716.464,-38.574,292.480,32.227,-31.738,0.000
1587066716.468,-53.711,72.266,-17.090,-35.645,0.000
1587066716.471,-80.078,100.098,70.801,-50.293,0.000
1587066716.475,-60.547,172.852,71.777,-49.805,0.000
1587066716.479,-18.066,174.316,42.480,-14.648,0.000
1587066716.483,-21.484,304.199,104.004,-20.996,0.000
1587066716.487,-49.316,183.594,38.086,-47.852,0.000
1587066716.491,-41.504,-170.898,-229.492,-36.133,0.000
1587066716.495,-10.254,-459.961,-382.324,-8.301,0.000
1587066716.499,-10.742,-314.453,-148.926,-4.395,0.000
1587066716.503,-43.945,-78.125,-42.969,-26.855,0.000
1587066716.507,-55.176,-148.926,-211.914,-34.668,0.000
1587066716.510,-13.672,-236.328,-221.680,-8.301,0.000
1587066716.514,-6.836,126.953,20.996,-9.277,0.000
1587066716.518,-47.852,274.414,97.168,-25.391,0.000
1587066716.522,-57.617,-16.113,-54.199,-25.879,0.000
1587066716.526,-20.020,-97.656,-121.094,-16.602,0.000
1587066716.530,-0.977,293.945,104.492,-7.812,0.000
1587066716.534,-18.066,399.414,129.395,-16.113,0.000
1587066716.538,-37.109,-251.953,-215.332,-29.785,0.000
1587066716.542,-10.742,-649.902,-327.148,0.000,0.000
1587066716.546,14.160,94.238,72.754,7.812,0.000
1587066716.550,-2.930,433.594,134.277,-8.301,0.000
1587066716.553,-41.992,-50.781,-157.715,-24.414,0.000
1587066716.557,-45.410,-123.047,-148.438,-29.297,0.000
1587066716.561,-11.719,396.973,171.387,-14.160,0.000
1587066716.565,-2.930,397.461,71.289,-4.883,0.000
1587066716.569,-36.621,-175.781,-270.508,-28.809,0.000
1587066716.573,-60.547,-140.137,-99.609,-58.594,0.000
1587066716.577,-26.367,268.066,154.297,-45.410,0.000
1587066716.581,-5.371,355.957,112.305,-20.020,0.000
1587066716.585,-20.996,-372.559,-312.500,-18.555,0.000
1587066716.589,-47.852,-600.098,-413.086,-43.945,0.000
1587066716.593,-37.598,-24.902,-34.668,-41.992,0.000
1587066716.596,-2.930,-26.367,-41.504,-22.949,0.000
1587066716.600,-26.367,-608.887,-421.387,-25.879,0.000
1587066716.604,-70.801,-647.461,-334.961,-53.223,0.000
1587066716.608,-67.383,247.559,136.719,-61.035,0.000
1587066716.612,-28.809,481.934,169.434,-20.508,0.000
1587066716.616,-37.598,154.785,21.484,-29.297,0.000
1587066716.620,-68.359,18.555,-40.039,-56.641,0.000
1587066716.624,-64.941,29.297,-70.312,-58.594,0.000
1587066716.628,-35.156,-8.789,-58.594,-40.039,0.000
1587066716.632,-33.203,-103.516,-144.531,-35.645,0.000
1587066716.635,-73.730,-138.184,-243.164,-60.547,0.000
1587066716.639,-82.520,37.598,-123.535,-66.406,0.000
1587066716.643,-28.809,-41.016,-67.871,-37.598,0.000
1587066716.647,-21.484,-440.918,-245.117,-16.113,0.000
1587066716.651,-72.266,83.984,3.418,-48.828,0.000
1587066716.655,-71.289,245.117,76.660,-47.852,0.000
1587066716.659,-38.086,-11.230,-32.715,-23.926,0.000
1587066716.663,-27.832,260.254,95.703,-30.762,0.000
1587066716.667,-49.805,523.926,177.734,-46.387,0.000
1587066716.671,-67.871,246.094,39.551,-53.223,0.000
1587066716.675,-46.875,-202.148,-276.855,-43.945,0.000
1587066716.678,-20.020,-141.113,-164.062,-26.367,0.000
1587066716.682,-25.391,-3.418,-50.293,-20.996,0.000
1587066716.686,-55.176,-303.223,-340.332,-42.969,0.000
1587066716.690,-40.527,-746.094,-476.074,-34.668,0.000
1587066716.694,-7.812,-181.152,-24.902,-19.531,0.000
1587066716.698,-25.879,451.660,201.660,-28.809,0.000
1587066716.702,-46.387,46.387,-95.703,-29.297,0.000
1587066716.706,-41.992,-623.535,-412.598,-18.555,0.000
1587066716.710,-33.203,-36.621,11.230,-31.738,0.000
1587066716.714,-5.859,597.656,236.328,-3.906,0.000
1587066716.718,-11.719,216.309,-0.488,-5.371,0.000
1587066716.721,-64.941,-183.105,-210.449,-60.059,0.000
1587066716.725,-51.758,-218.262,-282.227,-53.223,0.000
1587066716.729,-8.301,47.852,-39.551,-30.762,0.000
1587066716.733,-24.902,-24.414,-28.809,-29.297,0.000
1587066716.737,-47.363,-671.387,-373.535,-27.344,0.000
1587066716.741,-43.945,-183.594,-153.320,-51.270,0.000
1587066716.745,-11.230,294.922,103.516,-38.086,0.000
1587066716.749,-8.789,138.184,23.926,-17.578,0.000
1587066716.753,-47.363,105.957,32.227,-38.086,0.000
1587066716.757,-49.316,169.434,39.062,-39.062,0.000
1587066716.760,-11.719,272.461,83.496,1.465,0.000
1587066716.764,4.883,100.098,-15.137,16.113,0.000
1587066716.768,-37.109,-18.066,-76.172,-32.227,0.000
1587066716.772,-57.129,-243.164,-255.859,-51.758,0.000
1587066716.776,-26.367,-145.508,-238.281,-23.926,0.000
1587066716.780,0.000,-316.406,-219.727,-1.465,0.000
1587066716.784,-30.762,-613.770,-363.770,-24.414,0.000
1587066716.788,-69.824,-94.727,-164.062,-64.453,0.000
1587066716.792,-48.340,115.723,0.488,-50.293,0.000
1587066716.796,-19.531,85.938,19.531,-26.855,0.000
1587066716.800,-20.508,194.824,9.766,-29.297,0.000
1587066716.803,-54.199,-92.773,-206.543,-43.457,0.000
1587066716.807,-50.781,-175.781,-275.879,-41.016,0.000
1587066716.811,-9.277,130.859,-33.203,-20.996,0.000
1587066716.815,-18.555,404.297,133.789,-20.020,0.000
1587066716.819,-55.176,44.922,-111.816,-31.250,0.000
1587066716.823,-55.176,-402.344,-376.953,-32.227,0.000
1587066716.827,-22.461,-603.027,-352.051,-14.160,0.000
1587066716.831,-30.762,146.484,68.359,-27.832,0.000
1587066716.835,-57.617,443.359,128.418,-43.945,0.000
1587066716.839,-60.059,-115.723,-142.090,-52.734,0.000
1587066716.843,-34.180,48.828,21.484,-44.434,0.000
1587066716.846,-16.602,561.523,208.984,-28.320,0.000
1587066716.850,-34.668,446.289,113.770,-41.016,0.000
1587066716.854,-50.293,-111.328,-153.809,-49.316,0.000
1587066716.858,-30.762,-146.973,-214.355,-19.043,0.000
1587066716.862,-1.465,134.766,73.730,1.953,0.000
1587066716.866,-11.719,61.523,-25.391,-13.184,0.000
1587066716.870,-49.316,-449.219,-418.457,-29.785,0.000
1587066716.874,-51.758,-557.617,-354.980,-40.039,0.000
1587066716.878,-28.809,-22.461,-14.648,-38.574,0.000
1587066716.882,-43.945,307.129,80.078,-33.203,0.000
1587066716.885,-77.148,-9.766,-125.488,-43.457,0.000
1587066716.889,-74.707,-39.062,-73.730,-54.199,0.000
1587066716.893,-41.016,342.285,133.789,-47.852,0.000
1587066716.897,-19.043,348.633,66.895,-30.762,0.000
1587066716.901,-43.457,8.301,-148.926,-34.180,0.000
1587066716.905,-58.594,-138.672,-273.438,-49.805,0.000
1587066716.909,-31.250,94.727,-104.492,-43.945,0.000
1587066716.913,-5.371,72.754,8.301,-15.625,0.000
1587066716.917,-15.625,-740.234,-422.852,-3.418,0.000
1587066716.921,-68.848,-519.531,-306.641,-53.223,0.000
1587066716.925,-65.430,250.977,62.988,-63.477,0.000
1587066716.928,-11.230,328.613,80.566,-19.531,0.000
1587066716.932,-17.090,341.309,94.238,-19.531,0.000
1587066716.936,-50.293,238.770,46.387,-39.551,0.000
1587066716.940,-35.645,109.375,7.324,-27.344,0.000
1587066716.944,-1.465,117.676,-4.395,-10.742,0.000
1587066716.948,-7.324,251.465,76.660,-15.137,0.000
1587066716.952,-37.109,148.438,35.156,-30.762,0.000
1587066716.956,-38.574,-173.340,-248.047,-29.297,0.000
1587066716.960,-6.836,-371.582,-388.184,7.812,0.000
1587066716.964,2.441,-119.629,-98.145,2.930,0.000
1587066716.968,-34.668,90.332,39.062,-31.738,0.000
1587066716.971,-66.406,-281.250,-269.531,-40.527,0.000
1587066716.975,-37.109,-658.691,-453.125,-20.508,0.000
1587066716.979,-18.066,-249.512,-122.559,-23.438,0.000
1587066716.983,-43.457,350.098,154.297,-33.691,0.000
1587066716.987,-54.688,19.531,-101.562,-33.203,0.000
1587066716.991,-42.969,-229.004,-202.637,-42.480,0.000
1587066716.995,-20.996,267.090,105.469,-38.574,0.000
1587066716.999,-20.020,453.125,126.465,-35.645,0.000
1587066717.003,-48.340,106.445,-20.508,-50.781,0.000
1587066717.007,-54.688,-291.992,-269.043,-55.176,0.000
1587066717.010,-21.973,-45.898,-94.727,-34.668,0.000
1587066717.014,-8.789,488.770,189.941,-36.133,0.000
1587066717.018,-31.738,2.930,-167.480,-38.574,0.000
1587066717.022,-40.527,-757.324,-446.777,-30.273,0.000
1587066717.026,-33.203,-21.484,29.785,-41.504,0.000
1587066717.030,-26.855,620.117,238.281,-39.062,0.000
1587066717.034,-40.527,147.949,-73.730,-29.297,0.000
1587066717.038,-58.105,-210.938,-238.281,-40.039,0.000
1587066717.042,-53.223,110.840,6.836,-46.387,0.000
1587066717.046,-26.855,422.852,171.875,-20.996,0.000
1587066717.050,-29.785,83.496,-83.496,-7.812,0.000
1587066717.053,-56.152,-400.879,-371.582,-20.020,0.000
1587066717.057,-52.246,-288.574,-282.227,-35.645,0.000
1587066717.061,0.000,122.070,27.344,-9.766,0.000
1587066717.065,21.973,-315.430,-254.395,16.113,0.000
1587066717.069,-44.922,-460.938,-262.207,-30.762,0.000
1587066717.073,-58.594,114.258,78.613,-49.805,0.000
1587066717.077,-16.602,336.914,131.836,-10.742,0.000
1587066717.081,-4.883,234.863,65.430,-2.441,0.000
1587066717.085,-38.086,185.547,44.922,-26.855,0.000
1587066717.089,-56.641,143.555,65.430,-42.969,0.000
1587066717.093,-17.578,60.059,17.090,-19.531,0.000
1587066717.096,7.324,100.098,53.711,3.418,0.000
1587066717.100,-14.160,-44.434,-67.383,-6.836,0.000
1587066717.104,-47.363,-275.879,-290.527,-27.344,0.000
1587066717.108,-32.715,-322.266,-311.035,-24.414,0.000
1587066717.112,6.348,-547.363,-301.758,-2.930,0.000
1587066717.116,-20.508,-66.406,-25.391,-33.203,0.000
1587066717.120,-58.105,235.352,98.145,-65.430,0.000
1587066717.124,-34.180,-87.891,-57.129,-41.016,0.000
1587066717.128,10.254,-386.230,-126.953,-0.977,0.000
1587066717.132,-11.230,192.383,109.863,-20.020,0.000
1587066717.135,-44.434,335.449,98.633,-44.922,0.000
1587066717.139,-47.852,-78.613,-121.582,-47.852,0.000
1587066717.143,-37.598,132.812,23.438,-45.898,0.000
1587066717.147,-29.297,195.312,86.426,-25.391,0.000
1587066717.151,-47.852,-164.062,-160.156,-29.785,0.000
1587066717.155,-57.617,-750.488,-549.316,-56.641,0.000
1587066717.159,-45.410,-727.051,-344.727,-55.664,0.000
1587066717.163,-42.969,284.180,185.547,-60.059,0.000
1587066717.167,-57.129,293.945,47.852,-56.152,0.000
1587066717.171,-69.336,-337.891,-196.289,-50.293,0.000
1587066717.175,-60.547,15.137,-10.742,-57.617,0.000
1587066717.178,-40.039,526.367,193.848,-43.945,0.000
1587066717.182,-34.668,374.512,74.707,-32.227,0.000
1587066717.186,-59.082,-12.207,-139.160,-50.293,0.000
1587066717.190,-61.523,61.523,-33.203,-60.547,0.000
1587066717.194,-17.578,213.379,124.512,-33.203,0.000
1587066717.198,4.395,-1.465,-48.340,-4.395,0.000
1587066717.202,-16.113,-701.660,-409.180,-3.418,0.000
1587066717.206,-48.828,-221.680,-70.312,-52.734,0.000
1587066717.210,-34.668,353.027,147.949,-56.641,0.000
1587066717.214,-13.672,210.938,23.926,-36.621,0.000
1587066717.218,-37.598,234.863,71.777,-45.898,0.000
1587066717.221,-61.035,206.543,61.035,-57.129,0.000
1587066717.225,-44.922,181.641,56.152,-45.898,0.000
1587066717.229,-20.020,126.465,85.449,-24.902,0.000
1587066717.233,-47.852,231.445,100.586,-36.621,0.000
1587066717.237,-80.078,174.316,27.344,-61.523,0.000
1587066717.241,-58.105,-106.934,-198.730,-51.270,0.000
1587066717.245,-30.273,-288.574,-275.391,-22.461,0.000
1587066717.249,-33.691,-115.234,-19.531,-22.949,0.000
1587066717.253,-68.848,-6.836,-29.297,-47.852,0.000
1587066717.257,-70.801,104.004,-20.996,-51.758,0.000
1587066717.260,-15.625,-286.621,-215.332,4.395,0.000
1587066717.264,-34.180,-58.105,9.277,-0.488,0.000
1587066717.268,-78.613,293.945,128.906,-58.105,0.000
1587066717.272,-71.289,-222.168,-309.570,-65.918,0.000
1587066717.276,-45.898,-85.938,-169.434,-53.223,0.000
1587066717.280,-35.156,417.480,175.293,-41.504,0.000
1587066717.284,-52.734,430.664,112.305,-49.805,0.000
1587066717.288,-52.734,-263.184,-296.875,-45.410,0.000
1587066717.292,-32.227,-651.855,-348.145,-25.391,0.000
1587066717.296,-17.578,155.273,94.727,-26.855,0.000
1587066717.300,-27.344,434.570,139.648,-27.344,0.000
1587066717.303,-50.781,-113.770,-152.344,-36.133,0.000
1587066717.307,-56.641,-203.125,-167.480,-43.457,0.000
1587066717.311,-26.367,260.742,141.113,-22.949,0.000
1587066717.315,-15.625,459.473,166.504,-13.184,0.000
1587066717.319,-41.504,-33.691,-118.652,-31.738,0.000
1587066717.323,-51.270,-211.914,-237.305,-41.504,0.000
1587066717.327,-22.949,-8.789,-122.070,-26.367,0.000
1587066717.331,-14.648,102.539,33.691,-19.531,0.000
1587066717.335,-44.434,-277.832,-192.383,-31.738,0.000
1587066717.339,-67.383,-339.355,-233.887,-49.805,0.000
1587066717.343,-29.297,246.582,128.418,-24.414,0.000
1587066717.346,11.230,210.449,86.914,2.441,0.000
1587066717.350,-13.184,-207.520,-229.004,-18.555,0.000
1587066717.354,-63.477,-113.770,-99.121,-65.430,0.000
1587066717.358,-51.270,336.914,166.504,-62.988,0.000
1587066717.362,-9.766,311.523,76.660,-38.574,0.000
1587066717.366,-17.090,60.059,-40.527,-52.734,0.000
1587066717.370,-42.480,125.977,57.129,-74.219,0.000
1587066717.374,-35.645,232.910,88.379,-70.801,0.000
1587066717.378,6.348,250.977,80.566,-35.645,0.000
1587066717.382,24.414,29.785,-48.340,-14.648,0.000
1587066717.385,-13.184,-216.309,-230.469,-46.387,0.000
1587066717.389,-31.738,-104.492,-198.730,-68.848,0.000
1587066717.393,7.812,-20.996,-63.477,-38.086,0.000
1587066717.397,28.320,-388.184,-225.586,-5.371,0.000
1587066717.401,-7.812,-104.004,-135.254,-29.785,0.000
1587066717.405,-23.926,77.148,-110.352,-47.852,0.000
1587066717.409,8.301,-35.645,-117.676,-38.086,0.000
1587066717.413,21.484,213.379,74.219,-20.996,0.000
1587066717.417,-9.277,384.766,122.070,-27.344,0.000
1587066717.421,-26.855,73.730,-70.801,-47.852,0.000
1587066717.425,4.395,-185.059,-289.551,-36.133,0.000
1587066717.428,27.344,-69.336,-123.535,-26.367,0.000
1587066717.432,-0.488,80.078,31.250,-37.598,0.000
1587066717.436,-29.785,-51.758,-117.676,-55.176,0.000
1587066717.440,-12.207,-678.223,-505.371,-35.156,0.000
1587066717.444,3.418,-470.703,-228.516,-16.113,0.000
1587066717.448,-5.859,226.074,142.578,-28.320,0.000
1587066717.452,-36.621,169.922,29.297,-47.363,0.000
1587066717.456,-47.852,-141.113,-155.762,-53.223,0.000
1587066717.460,-15.625,137.695,16.113,-34.668,0.000
1587066717.464,-7.812,469.238,166.504,-27.344,0.000
1587066717.468,-40.039,222.656,6.348,-50.293,0.000
1587066717.471,-66.895,-182.129,-218.750,-65.918,0.000
1587066717.475,-41.016,-228.516,-259.277,-45.410,0.000
1587066717.479,-8.789,100.098,7.812,-31.738,0.000
1587066717.483,-21.973,54.199,-74.707,-34.180,0.000
1587066717.487,-35.645,-761.719,-509.766,-31.738,0.000
1587066717.491,-20.996,-325.195,-195.312,-46.875,0.000
1587066717.495,7.324,436.035,183.105,-36.133,0.000
1587066717.499,10.742,243.652,25.879,-16.113,0.000
1587066717.503,-18.555,-215.820,-221.680,-20.996,0.000
1587066717.507,-39.062,12.207,-80.078,-32.715,0.000
1587066717.510,-10.742,390.625,140.137,-10.742,0.000
1587066717.514,19.531,98.633,-118.652,14.648,0.000
1587066717.518,-17.578,-73.242,-171.875,-14.160,0.000
1587066717.522,-34.180,-230.957,-270.996,-27.832,0.000
1587066717.526,-0.977,-159.668,-239.746,-3.418,0.000
1587066717.530,21.484,-281.738,-229.004,22.949,0.000
1587066717.534,-15.137,-425.293,-243.652,-4.395,0.000
1587066717.538,-55.176,69.336,38.086,-40.527,0.000
1587066717.542,-32.715,212.891,72.754,-32.227,0.000
1587066717.546,2.441,161.133,30.762,-23.438,0.000
1587066717.550,-10.742,230.957,50.293,-29.297,0.000
1587066717.553,-43.457,203.613,66.895,-41.992,0.000
1587066717.557,-18.066,-19.531,-101.074,-20.996,0.000
1587066717.561,26.855,-105.469,-140.137,18.066,0.000
1587066717.565,9.766,158.691,45.898,9.766,0.000
1587066717.569,-21.484,-116.211,-211.426,-15.137,0.000
1587066717.573,-15.625,-468.262,-373.047,-8.301,0.000
1587066717.577,25.879,-658.691,-350.586,37.109,0.000
1587066717.581,8.301,106.934,64.941,22.461,0.000
1587066717.585,-29.297,428.223,130.859,-11.719,0.000
1587066717.589,-28.320,-95.703,-147.949,-16.602,0.000
1587066717.593,2.930,112.305,41.504,-12.207,0.000
1587066717.596,19.043,499.023,176.270,-2.441,0.000
1587066717.600,-6.836,293.945,57.129,-3.906,0.000
1587066717.604,-22.949,-147.461,-131.836,-14.648,0.000
1587066717.608,-11.719,17.578,-10.742,-14.160,0.000
1587066717.612,16.113,321.289,162.598,3.906,0.000
1587066717.616,18.066,-13.672,-125.000,5.859,0.000
1587066717.620,-20.508,-664.062,-499.512,-15.137,0.000
1587066717.624,-22.949,-656.250,-376.465,-22.949,0.000
1587066717.628,10.254,-105.469,-143.066,-7.324,0.000
1587066717.632,-5.859,92.285,-19.531,-5.859,0.000
1587066717.635,-51.758,-177.246,-188.965,-36.621,0.000
1587066717.639,-55.664,-87.402,-170.410,-42.480,0.000
1587066717.643,-18.555,344.238,139.648,-14.648,0.000
1587066717.647,-6.348,272.461,67.383,-8.301,0.000
1587066717.651,-43.457,-148.926,-220.703,-22.461,0.000
1587066717.655,-71.777,-146.973,-258.789,-41.504,0.000
1587066717.659,-31.250,213.867,41.992,-21.484,0.000
1587066717.663,7.812,48.828,-12.695,14.648,0.000
1587066717.667,-20.020,-683.594,-408.691,2.441,0.000
1587066717.671,-66.406,-266.113,-93.750,-45.410,0.000
1587066717.675,-55.176,195.801,84.961,-37.109,0.000
1587066717.678,-14.648,123.535,26.367,-4.883,0.000
1587066717.682,-30.273,191.895,83.496,-15.625,0.000
1587066717.686,-66.895,158.203,55.664,-38.574,0.000
1587066717.690,-48.828,121.094,33.203,-27.832,0.000
1587066717.694,-5.859,79.102,48.340,-0.977,0.000
1587066717.698,-18.555,154.297,76.172,-8.301,0.000
1587066717.702,-62.988,191.895,42.969,-41.504,0.000
1587066717.706,-63.965,47.852,-26.855,-50.293,0.000
1587066717.710,-16.602,-283.691,-271.484,-11.719,0.000
1587066717.714,-11.719,-208.008,-229.004,-4.395,0.000
1587066717.718,-47.363,114.258,26.855,-25.391,0.000
1587066717.721,-40.527,-282.715,-290.527,-19.531,0.000
1587066717.725,-11.230,-681.152,-494.629,6.836,0.000
1587066717.729,-17.090,-203.125,-93.262,-7.812,0.000
1587066717.733,-48.828,124.023,-69.336,-35.156,0.000
1587066717.737,-62.500,-306.152,-375.977,-37.598,0.000
1587066717.741,-45.898,-302.734,-192.871,-34.668,0.000
1587066717.745,-30.273,277.344,154.297,-22.949,0.000
1587066717.749,-37.109,471.191,160.156,-16.602,0.000
1587066717.753,-62.988,5.371,-110.352,-37.598,0.000
1587066717.757,-67.383,-463.379,-373.535,-43.945,0.000
1587066717.760,-38.086,-212.402,-164.062,-22.461,0.000
1587066717.764,-36.133,407.715,178.711,-23.926,0.000
1587066717.768,-60.547,18.066,-106.445,-40.527,0.000
1587066717.772,-54.688,-803.711,-483.398,-43.457,0.000
1587066717.776,-38.086,-191.895,-101.074,-53.223,0.000
1587066717.780,-18.555,491.211,193.848,-37.109,0.000
1587066717.784,-30.273,70.801,-129.395,-33.203,0.000
1587066717.788,-66.406,-187.988,-240.723,-62.500,0.000
1587066717.792,-42.480,77.148,-16.602,-49.805,0.000
1587066717.796,-2.930,-22.461,-45.410,-9.277,0.000
1587066717.800,-23.438,-236.328,-286.621,-21.973,0.000
1587066717.803,-63.477,-384.277,-391.602,-65.918,0.000
1587066717.807,-64.453,-249.023,-270.020,-72.266,0.000
1587066717.811,-30.273,245.117,54.199,-41.016,0.000
1587066717.815,-16.113,-299.316,-257.812,-11.719,0.000
1587066717.819,-58.105,-697.266,-324.219,-55.664,0.000
1587066717.823,-74.219,82.520,102.051,-95.215,0.000
1587066717.827,-23.926,398.926,141.602,-59.570,0.000
1587066717.831,-19.531,200.684,30.762,-46.387,0.000
1587066717.835,-73.730,77.148,-14.648,-75.684,0.000
1587066717.839,-94.238,-0.488,-31.738,-83.008,0.000
1587066717.843,-52.734,30.762,24.902,-48.340,0.000
1587066717.846,-24.414,169.434,139.648,-30.762,0.000
1587066717.850,-48.828,-71.289,-106.445,-35.645,0.000
1587066717.854,-77.148,-294.434,-308.594,-68.359,0.000
1587066717.858,-67.871,-296.387,-281.250,-70.312,0.000
1587066717.862,-37.598,-502.930,-272.949,-16.602,0.000
1587066717.866,-58.594,130.371,65.918,-41.016,0.000
1587066717.870,-78.125,262.207,63.965,-67.871,0.000
1587066717.874,-56.152,26.855,-10.742,-60.547,0.000
1587066717.878,-34.180,281.738,138.184,-47.852,0.000
1587066717.882,-34.668,315.918,106.934,-36.133,0.000
1587066717.885,-57.129,129.395,40.039,-59.082,0.000
1587066717.889,-59.570,-229.004,-237.305,-55.664,0.000
1587066717.893,-34.668,4.395,-26.855,-40.039,0.000
1587066717.897,-17.090,132.324,66.895,-40.527,0.000
1587066717.901,-43.457,-195.801,-234.863,-44.922,0.000
1587066717.905,-53.223,-591.309,-461.914,-35.645,0.000
1587066717.909,-15.625,-668.945,-337.402,-24.414,0.000
1587066717.913,-0.977,29.297,62.500,-26.367,0.000
1587066717.917,-34.180,218.262,60.059,-45.898,0.000
1587066717.921,-69.824,-198.242,-181.641,-67.871,0.000
1587066717.925,-54.688,61.523,-1.465,-57.617,0.000
1587066717.928,-22.461,406.250,158.203,-30.273,0.000
1587066717.932,-37.598,261.719,67.383,-29.297,0.000
1587066717.936,-73.242,-46.387,-81.055,-56.152,0.000
1587066717.940,-67.383,-10.254,-17.090,-65.430,0.000
1587066717.944,-34.668,128.906,96.680,-36.621,0.000
1587066717.948,-39.062,-87.402,-48.828,-21.484,0.000
1587066717.952,-69.336,-740.234,-428.223,-40.527,0.000
1587066717.956,-88.379,-291.504,-157.227,-68.359,0.000
1587066717.960,-47.852,396.484,168.457,-46.875,0.000
1587066717.964,-21.484,315.430,63.965,-21.484,0.000
1587066717.968,-57.129,83.984,0.977,-35.645,0.000
1587066717.971,-77.148,-136.230,-211.914,-55.664,0.000
1587066717.975,-63.965,53.711,-97.168,-56.641,0.000
1587066717.979,-29.297,115.234,-29.297,-30.273,0.000
1587066717.983,-46.387,98.145,-12.207,-36.621,0.000
1587066717.987,-89.844,12.695,-68.359,-64.453,0.000
1587066717.991,-59.570,-262.695,-307.129,-55.664,0.000
1587066717.995,-19.531,-221.680,-189.453,-26.367,0.000
1587066717.999,-39.062,62.988,33.691,-37.109,0.000
1587066718.003,-81.543,-70.312,-102.539,-65.918,0.000
1587066718.007,-79.590,-157.227,-245.117,-68.359,0.000
1587066718.010,-26.367,-396.484,-285.645,-34.180,0.000
1587066718.014,-31.738,-146.973,-42.969,-32.715,0.000
1587066718.018,-73.730,285.156,126.953,-67.871,0.000
1587066718.022,-72.266,-5.859,-56.152,-69.336,0.000
1587066718.026,-40.527,-257.812,-178.711,-34.180,0.000
1587066718.030,-19.531,-53.711,-20.508,-16.602,0.000
1587066718.034,-37.109,229.004,109.863,-37.598,0.000
1587066718.038,-60.547,-202.148,-198.730,-40.039,0.000
1587066718.042,-37.598,-824.219,-476.074,-15.625,0.000
1587066718.046,-25.391,-39.062,6.836,-20.020,0.000
1587066718.050,-49.805,502.930,191.895,-28.809,0.000
1587066718.053,-68.848,-14.648,-139.160,-41.504,0.000
1587066718.057,-49.805,-102.539,-156.250,-44.434,0.000
1587066718.061,-25.879,295.898,127.930,-33.203,0.000
1587066718.065,-28.809,333.984,112.305,-29.785,0.000
1587066718.069,-52.246,-99.121,-114.258,-46.387,0.000
1587066718.073,-61.523,-44.922,-15.625,-55.664,0.000
1587066718.077,-25.879,408.691,199.707,-44.434,0.000
1587066718.081,-12.207,406.250,106.445,-29.785,0.000
1587066718.085,-42.480,-252.441,-279.297,-29.785,0.000
1587066718.089,-60.547,-479.004,-379.883,-41.992,0.000
1587066718.093,-40.039,-125.000,-127.441,-39.551,0.000
1587066718.096,-26.855,30.273,25.879,-32.715,0.000
1587066718.100,-47.363,-419.922,-318.359,-38.574,0.000
1587066718.104,-76.660,-469.238,-318.848,-61.035,0.000
1587066718.108,-67.871,145.508,44.434,-62.988,0.000
1587066718.112,-32.227,346.191,129.395,-36.133,0.000
1587066718.116,-27.344,83.496,13.672,-27.832,0.000
1587066718.120,-55.664,4.883,-2.441,-50.781,0.000
1587066718.124,-46.875,117.188,-3.418,-43.457,0.000
1587066718.128,-5.859,266.602,101.074,-3.906,0.000
1587066718.132,-7.324,17.090,-81.543,-8.789,0.000
1587066718.135,-46.875,-197.754,-192.383,-46.387,0.000
1587066718.139,-60.059,96.191,44.922,-58.105,0.000
1587066718.143,-24.414,0.488,-1.953,-20.020,0.000
1587066718.147,-15.625,-566.895,-286.133,0.488,0.000
1587066718.151,-67.871,-150.879,-45.898,-56.152,0.000
1587066718.155,-67.871,13.184,-57.617,-56.641,0.000
1587066718.159,-26.367,-91.797,-64.453,-32.227,0.000
1587066718.163,-28.320,244.629,130.859,-38.086,0.000
1587066718.167,-69.336,362.305,119.141,-62.012,0.000
1587066718.171,-82.520,75.195,9.277,-78.125,0.000
1587066718.175,-58.594,-199.219,-225.586,-66.895,0.000
1587066718.178,-34.668,-254.395,-274.414,-39.062,0.000
1587066718.182,-48.828,-90.820,-152.832,-37.109,0.000
1587066718.186,-83.984,-63.965,-129.395,-61.523,0.000
1587066718.190,-59.570,-672.852,-503.906,-39.062,0.000
1587066718.194,-20.020,-395.996,-184.570,-6.836,0.000
1587066718.198,-31.250,318.359,157.715,-26.855,0.000
1587066718.202,-61.523,-84.961,-199.707,-62.012,0.000
1587066718.206,-68.359,-433.105,-264.648,-75.684,0.000
1587066718.210,-48.340,122.559,66.895,-61.035,0.000
1587066718.214,-20.020,459.473,159.180,-46.387,0.000
1587066718.218,-32.227,142.578,2.930,-54.199,0.000
1587066718.221,-56.152,-247.559,-224.609,-70.312,0.000
1587066718.225,-29.297,-354.004,-354.492,-58.105,0.000
1587066718.229,-19.043,-110.352,-148.438,-44.922,0.000
1587066718.233,-48.340,-73.730,-94.727,-54.199,0.000
1587066718.237,-51.270,-835.449,-522.461,-41.992,0.000
1587066718.241,-49.805,-402.344,-258.301,-52.734,0.000
1587066718.245,-23.926,439.453,171.387,-52.734,0.000
1587066718.249,-26.367,197.266,-23.438,-40.039,0.000
1587066718.253,-59.082,-70.312,-100.586,-59.570,0.000
1587066718.257,-58.594,152.344,73.242,-73.730,0.000
1587066718.260,-19.531,260.254,92.773,-45.898,0.000
1587066718.264,8.301,85.449,-14.648,-30.762,0.000
1587066718.268,-7.812,42.480,-24.414,-65.918,0.000
1587066718.272,3.418,-142.578,-227.051,-70.801,0.000
1587066718.276,21.973,-23.438,-130.859,-42.480,0.000
1587066718.280,-2.930,-215.332,-150.879,-4.883,0.000
1587066718.284,-68.848,-558.105,-374.023,-26.855,0.000
1587066718.288,-98.145,-38.574,-106.445,-76.660,0.000
1587066718.292,-64.453,261.230,79.102,-45.898,0.000
1587066718.296,-33.203,193.359,41.016,-8.301,0.000
1587066718.300,-53.223,294.922,78.613,-32.227,0.000
1587066718.303,-80.566,289.551,102.539,-65.430,0.000
1587066718.307,-58.105,67.383,12.695,-55.664,0.000
1587066718.311,-21.973,165.039,65.430,-29.297,0.000
1587066718.315,-34.180,400.879,135.742,-31.250,0.000
1587066718.319,-62.012,83.984,-57.129,-51.758,0.000
1587066718.323,-52.246,-340.332,-344.727,-42.969,0.000
1587066718.327,-13.672,-625.977,-382.324,-3.418,0.000
1587066718.331,-31.250,100.586,46.387,-20.996,0.000
1587066718.335,-64.453,373.047,97.656,-53.711,0.000
1587066718.339,-39.062,-57.617,-108.887,-52.734,0.000
1587066718.343,-9.277,118.652,31.738,-44.434,0.000
1587066718.346,0.977,451.172,154.785,-27.832,0.000
1587066718.350,-28.320,345.703,100.098,-29.785,0.000
1587066718.354,-40.039,-184.082,-209.961,-35.645,0.000
1587066718.358,-19.531,-112.305,-184.570,-32.227,0.000
1587066718.362,-16.602,449.707,190.430,-31.250,0.000
1587066718.366,-22.949,201.172,-29.785,-30.273,0.000
1587066718.370,-38.086,-582.031,-470.703,-27.832,0.000
1587066718.374,-43.457,-715.332,-361.328,-29.297,0.000
1587066718.378,-19.531,-1.465,15.625,-19.531,0.000
1587066718.382,-8.301,95.215,-9.277,-21.973,0.000
1587066718.385,-47.363,-165.039,-140.137,-56.152,0.000
1587066718.389,-67.383,51.758,-18.555,-60.547,0.000
1587066718.393,-32.227,365.723,149.902,-35.156,0.000
1587066718.397,-21.973,337.891,83.984,-25.879,0.000
1587066718.401,-56.152,-28.809,-125.000,-40.039,0.000
1587066718.405,-69.336,-53.223,-48.828,-57.617,0.000
1587066718.409,-33.691,279.785,145.508,-49.316,0.000
1587066718.413,0.000,20.020,0.977,-19.531,0.000
1587066718.417,-12.695,-783.203,-442.871,-13.672,0.000
1587066718.421,-58.105,-389.160,-196.289,-55.664,0.000
1587066718.425,-40.527,156.738,84.961,-62.988,0.000
1587066718.428,3.418,41.992,-51.758,-28.320,0.000
1587066718.432,-16.602,70.801,12.207,-20.996,0.000
1587066718.436,-55.664,-121.094,-136.719,-44.922,0.000
1587066718.440,-52.734,-187.500,-221.191,-65.430,0.000
1587066718.444,-22.461,48.828,-18.066,-47.363,0.000
1587066718.448,-25.879,168.945,61.523,-41.992,0.000
1587066718.452,-57.129,76.660,-38.574,-65.918,0.000
1587066718.456,-59.570,-80.078,-221.191,-56.152,0.000
1587066718.460,-25.879,-329.102,-315.918,-22.949,0.000
1587066718.464,-20.508,-171.875,-92.773,-36.621,0.000
1587066718.468,-58.594,93.750,43.945,-66.895,0.000
1587066718.471,-59.082,-355.469,-295.898,-66.406,0.000
1587066718.475,-24.414,-511.719,-375.000,-39.551,0.000
1587066718.479,-17.578,216.309,73.730,-22.461,0.000
1587066718.483,-41.992,544.434,201.172,-37.109,0.000
1587066718.487,-62.012,87.402,23.438,-52.246,0.000
1587066718.491,-38.574,-117.188,-112.793,-41.016,0.000
1587066718.495,-7.812,-70.312,-75.684,-13.184,0.000
1587066718.499,-24.414,144.531,112.793,-15.137,0.000
1587066718.503,-60.547,-56.152,-72.754,-44.922,0.000
1587066718.507,-52.734,-512.207,-313.477,-49.805,0.000
1587066718.510,-20.508,-126.953,0.488,-30.273,0.000
1587066718.514,-25.879,444.336,206.055,-30.762,0.000
1587066718.518,-54.199,39.062,-73.730,-40.039,0.000
1587066718.522,-54.199,-593.262,-257.324,-41.992,0.000
1587066718.526,-22.949,32.227,84.473,-43.457,0.000
1587066718.530,-14.160,441.895,203.125,-35.156,0.000
1587066718.534,-55.176,-11.230,-82.031,-43.457,0.000
1587066718.538,-75.195,-209.961,-150.879,-62.012,0.000
1587066718.542,-46.387,104.492,79.590,-41.504,0.000
1587066718.546,-22.949,310.059,143.066,-15.625,0.000
1587066718.550,-35.645,-77.148,-141.113,-29.785,0.000
1587066718.553,-57.129,-451.172,-375.488,-46.387,0.000
1587066718.557,-42.480,-356.934,-308.594,-39.551,0.000
1587066718.561,-16.602,-45.410,-51.270,-26.367,0.000
1587066718.565,-25.391,-401.855,-263.672,-28.320,0.000
1587066718.569,-60.547,-546.387,-316.406,-57.617,0.000
1587066718.573,-67.871,18.555,37.598,-63.965,0.000
1587066718.577,-29.297,118.652,77.637,-25.879,0.000
1587066718.581,-29.297,60.059,24.902,-22.949,0.000
1587066718.585,-63.477,105.957,46.875,-52.246,0.000
1587066718.589,-65.430,31.738,-12.695,-62.012,0.000
1587066718.593,-33.203,50.293,27.832,-37.598,0.000
1587066718.596,-14.160,108.887,65.430,-20.996,0.000
1587066718.600,-49.805,-171.875,-144.531,-36.621,0.000
1587066718.604,-78.613,-242.676,-214.844,-56.152,0.000
1587066718.608,-51.758,-161.621,-175.293,-57.617,0.000
1587066718.612,-23.926,-587.402,-316.895,-30.273,0.000
1587066718.616,-56.641,-39.062,19.043,-57.617,0.000
1587066718.620,-80.078,244.629,87.891,-79.102,0.000
1587066718.624,-56.152,-121.094,-128.906,-56.152,0.000
1587066718.628,-27.344,100.098,48.340,-33.203,0.000
1587066718.632,-34.668,457.520,175.293,-35.156,0.000
1587066718.635,-62.012,240.723,20.020,-50.781,0.000
1587066718.639,-47.852,-232.910,-273.926,-41.016,0.000
1587066718.643,-21.973,5.371,-30.762,-20.508,0.000
1587066718.647,-24.902,107.910,29.785,-13.672,0.000
1587066718.651,-54.688,-83.984,-199.219,-38.086,0.000
1587066718.655,-62.500,-545.898,-490.723,-49.316,0.000
1587066718.659,-27.344,-551.758,-287.109,-25.391,0.000
1587066718.663,-17.578,367.188,184.570,-27.344,0.000
1587066718.667,-45.898,352.539,44.434,-40.527,0.000
1587066718.671,-67.871,-320.312,-282.227,-49.805,0.000
1587066718.675,-57.129,-202.148,-245.605,-58.105,0.000
1587066718.678,-40.527,436.035,160.645,-42.969,0.000
1587066718.682,-35.645,322.266,90.332,-27.344,0.000
1587066718.686,-58.594,-176.758,-246.582,-49.805,0.000
1587066718.690,-73.730,-14.160,-112.793,-64.453,0.000
1587066718.694,-35.156,145.996,85.449,-37.598,0.000
1587066718.698,-17.090,-67.871,-47.852,-28.809,0.000
1587066718.702,-41.504,-725.586,-439.453,-34.668,0.000
1587066718.706,-64.453,-374.512,-242.188,-51.758,0.000
1587066718.710,-20.508,365.234,153.809,-35.156,0.000
1587066718.714,-1.953,233.887,21.973,-19.531,0.000
1587066718.718,-41.504,45.898,-9.277,-37.598,0.000
1587066718.721,-62.500,125.000,62.988,-48.828,0.000
1587066718.725,-40.039,187.012,75.684,-37.109,0.000
1587066718.729,-1.953,43.457,-53.711,-16.602,0.000
1587066718.733,-21.973,62.500,-25.391,-24.414,0.000
1587066718.737,-54.199,87.891,25.879,-47.363,0.000
1587066718.741,-33.203,-212.891,-247.070,-30.762,0.000
1587066718.745,11.230,-440.918,-338.379,0.488,0.000
1587066718.749,4.883,-476.562,-300.293,-14.648,0.000
1587066718.753,-23.926,-274.902,-282.715,-32.227,0.000
1587066718.757,-12.207,-83.984,-174.805,-11.230,0.000
1587066718.760,-12.695,32.715,-3.418,-27.344,0.000
1587066718.764,-40.039,247.070,63.477,-57.129,0.000
1587066718.768,-93.262,285.645,88.379,-77.148,0.000
1587066718.772,-106.445,49.316,-20.508,-84.473,0.000
1587066718.776,-67.871,-15.137,-64.453,-70.312,0.000
1587066718.780,-72.754,364.746,127.930,-75.195,0.000
1587066718.784,-109.863,286.621,14.160,-95.703,0.000
1587066718.788,-125.977,-351.074,-347.656,-108.887,0.000
1587066718.792,-107.910,-867.676,-500.488,-86.914,0.000
1587066718.796,-107.910,-255.371,-55.664,-101.562,0.000
1587066718.800,-133.301,321.777,166.992,-129.883,0.000
1587066718.803,-151.855,-115.723,-151.855,-133.789,0.000
1587066718.807,-142.578,-132.812,-143.066,-124.023,0.000
1587066718.811,-104.492,358.887,156.738,-95.703,0.000
1587066718.815,-105.469,355.957,99.609,-90.332,0.000
1587066718.819,-126.465,-263.672,-259.766,-108.398,0.000
1587066718.823,-117.676,-365.723,-298.828,-115.723,0.000
1587066718.827,-97.168,179.688,91.797,-97.656,0.000
1587066718.831,-79.590,296.387,102.539,-72.754,0.000
1587066718.835,-76.660,-465.332,-384.766,-57.129,0.000
1587066718.839,-99.121,-570.801,-338.379,-88.379,0.000
1587066718.843,-74.219,62.500,42.969,-94.727,0.000
1587066718.846,-34.180,18.555,15.625,-58.594,0.000
1587066718.850,-65.918,-469.727,-290.039,-64.453,0.000
1587066718.854,-111.328,-232.910,-87.402,-89.844,0.000
1587066718.858,-80.566,257.324,139.160,-67.871,0.000
1587066718.862,-23.438,232.910,61.523,-31.250,0.000
1587066718.866,-42.480,-2.930,-40.039,-41.504,0.000
1587066718.870,-70.312,-90.332,-40.527,-64.453,0.000
1587066718.874,-64.941,135.742,75.684,-68.848,0.000
1587066718.878,-35.156,145.020,51.270,-34.668,0.000
1587066718.882,-24.414,-251.465,-207.031,-13.184,0.000
1587066718.885,-63.965,-290.527,-248.047,-39.551,0.000
1587066718.889,-80.078,175.293,62.500,-58.594,0.000
1587066718.893,-22.461,186.523,47.363,-23.438,0.000
1587066718.897,0.488,-345.215,-135.254,-3.906,0.000
1587066718.901,-47.363,-164.551,-66.895,-45.410,0.000
1587066718.905,-62.500,-248.535,-273.438,-57.129,0.000
1587066718.909,-28.320,-201.172,-176.758,-29.297,0.000
1587066718.913,-6.348,187.988,103.027,-11.719,0.000
1587066718.917,-26.855,158.203,38.574,-24.902,0.000
1587066718.921,-43.457,-159.180,-191.895,-39.551,0.000
1587066718.925,-19.531,-276.367,-302.246,-17.578,0.000
1587066718.928,-5.371,-167.480,-158.691,5.859,0.000
1587066718.932,-25.391,-40.527,11.230,-16.113,0.000
1587066718.936,-61.035,66.406,34.180,-61.523,0.000
1587066718.940,-54.688,-514.160,-388.184,-38.086,0.000
1587066718.944,-20.996,-475.586,-222.168,0.488,0.000
1587066718.948,-35.645,305.664,155.273,-28.320,0.000
1587066718.952,-62.012,69.336,-16.113,-42.480,0.000
1587066718.956,-45.898,-192.383,-124.023,-24.414,0.000
1587066718.960,-9.277,168.457,44.922,-15.137,0.000
1587066718.964,-5.859,260.742,96.191,-6.836,0.000
1587066718.968,-40.527,78.125,19.531,-9.766,0.000
1587066718.971,-54.199,-160.645,-170.410,-33.203,0.000
1587066718.975,-28.809,-120.605,-123.535,-38.574,0.000
1587066718.979,-8.789,261.719,141.113,-23.438,0.000
1587066718.983,-26.367,149.902,20.996,-22.949,0.000
1587066718.987,-46.387,-740.723,-430.176,-31.250,0.000
1587066718.991,-44.922,-269.043,-132.812,-45.898,0.000
1587066718.995,-29.297,411.621,187.012,-34.668,0.000
1587066718.999,-38.574,14.160,-81.543,-32.227,0.000
1587066719.003,-74.707,-111.816,-67.871,-52.246,0.000
1587066719.007,-72.754,123.047,80.078,-41.992,0.000
1587066719.010,-29.297,359.375,155.273,-21.484,0.000
1587066719.014,-10.742,210.449,19.043,-9.766,0.000
1587066719.018,-45.898,-80.566,-82.520,-27.344,0.000
1587066719.022,-53.711,-290.039,-252.930,-43.457,0.000
1587066719.026,-14.648,-136.719,-136.719,-24.902,0.000
1587066719.030,11.719,-250.977,-116.211,-0.488,0.000
1587066719.034,-25.391,-667.480,-376.953,-22.461,0.000
1587066719.038,-65.918,-213.379,-218.750,-61.523,0.000
1587066719.042,-40.039,142.090,20.508,-45.410,0.000
1587066719.046,-21.484,157.227,61.035,-27.832,0.000
1587066719.050,-48.828,258.301,82.031,-43.945,0.000
1587066719.053,-78.125,185.059,59.570,-64.941,0.000
1587066719.057,-57.129,28.809,-20.996,-46.387,0.000
1587066719.061,-16.602,129.395,97.656,-24.902,0.000
1587066719.065,-30.273,323.242,110.352,-26.367,0.000
1587066719.069,-65.430,-91.309,-244.141,-40.039,0.000
1587066719.073,-56.152,-361.816,-382.324,-61.523,0.000
1587066719.077,-6.836,-587.402,-393.555,-24.902,0.000
1587066719.081,8.301,-93.262,-82.031,8.301,0.000
1587066719.085,-39.551,369.141,121.582,-20.508,0.000
1587066719.089,-85.449,-33.691,-134.277,-72.754,0.000
1587066719.093,-78.613,8.789,-64.941,-79.590,0.000
1587066719.096,-44.922,324.219,106.445,-41.992,0.000
1587066719.100,-50.293,207.520,14.160,-45.898,0.000
1587066719.104,-86.914,-275.391,-279.297,-65.918,0.000
1587066719.108,-68.848,-118.652,-132.324,-46.875,0.000
1587066719.112,-25.391,420.898,202.148,-24.414,0.000
1587066719.116,-26.367,47.363,-102.539,-24.902,0.000
1587066719.120,-52.734,-605.469,-472.656,-38.086,0.000
1587066719.124,-50.293,-338.379,-184.570,-49.316,0.000
1587066719.128,-21.484,219.238,155.762,-36.133,0.000
1587066719.132,-31.738,354.492,96.680,-30.273,0.000
1587066719.135,-51.270,-473.633,-408.203,-28.809,0.000
1587066719.139,-55.176,-595.703,-382.812,-52.734,0.000
1587066719.143,-29.297,288.574,125.488,-53.223,0.000
1587066719.147,-18.066,434.082,139.648,-20.508,0.000
1587066719.151,-29.785,-133.789,-228.516,-9.277,0.000
1587066719.155,-40.039,-167.480,-231.934,-29.785,0.000
1587066719.159,-28.809,370.117,130.859,-35.645,0.000
1587066719.163,2.930,175.781,1.465,-9.766,0.000
1587066719.167,-7.812,-334.961,-278.320,-6.348,0.000
1587066719.171,-38.086,-158.691,-170.410,-29.297,0.000
1587066719.175,-24.414,251.953,84.961,-30.273,0.000
1587066719.178,5.859,250.488,54.688,0.000,0.000
1587066719.182,-7.324,-298.340,-192.871,-0.488,0.000
1587066719.186,-57.617,-62.988,-8.301,-47.363,0.000
1587066719.190,-58.105,217.773,75.195,-44.434,0.000
1587066719.194,-20.508,45.410,-5.859,-13.184,0.000
1587066719.198,-18.066,66.406,45.898,-12.695,0.000
1587066719.202,-53.711,187.012,76.172,-40.039,0.000
1587066719.206,-55.176,116.211,34.180,-59.570,0.000
1587066719.210,-10.742,-87.891,-60.547,-28.320,0.000
1587066719.214,-3.418,-175.781,-139.160,-11.230,0.000
1587066719.218,-39.551,-67.383,-133.789,-37.598,0.000
1587066719.221,-55.176,-246.582,-309.082,-45.898,0.000
1587066719.225,-21.484,-616.211,-473.145,-14.648,0.000
1587066719.229,-10.254,-259.277,-118.164,-17.090,0.000
1587066719.233,-43.945,290.039,106.934,-42.480,0.000
1587066719.237,-53.711,-56.641,-129.395,-35.156,0.000
1587066719.241,-43.945,-129.395,-94.238,-30.762,0.000
1587066719.245,-27.832,395.508,169.434,-26.855,0.000
1587066719.249,-30.273,435.059,122.559,-35.645,0.000
1587066719.253,-54.688,-4.395,-72.754,-58.594,0.000
1587066719.257,-52.246,-298.828,-267.090,-53.711,0.000
1587066719.260,-25.391,-96.191,-101.562,-23.438,0.000
1587066719.264,-29.785,389.160,180.664,-28.809,0.000
1587066719.268,-48.828,27.344,-105.957,-41.016,0.000
1587066719.272,-33.203,-806.152,-500.488,-8.301,0.000
1587066719.276,-20.996,-124.023,-47.363,-19.531,0.000
1587066719.280,-15.625,464.844,203.613,-28.809,0.000
1587066719.284,-35.156,-12.695,-112.305,-37.598,0.000
1587066719.288,-57.617,-219.238,-204.590,-59.082,0.000
1587066719.292,-35.645,223.145,88.379,-44.434,0.000
1587066719.296,-9.277,571.289,242.676,-21.484,0.000
1587066719.300,-14.648,171.387,-27.344,-17.090,0.000
1587066719.303,-36.133,-335.938,-339.355,-26.855,0.000
1587066719.307,-35.156,-192.871,-224.609,-35.156,0.000
1587066719.311,-27.344,339.844,131.836,-36.133,0.000
1587066719.315,-18.066,-166.504,-214.844,-20.996,0.000
1587066719.319,-45.410,-609.863,-342.773,-36.133,0.000
1587066719.323,-64.941,124.023,96.191,-68.359,0.000
1587066719.327,-26.855,390.137,133.789,-43.945,0.000
1587066719.331,-20.508,120.605,-7.812,-25.879,0.000
1587066719.335,-49.316,-26.855,-39.062,-46.387,0.000
1587066719.339,-46.875,-173.340,-221.680,-50.293,0.000
1587066719.343,-10.254,25.391,-21.973,-30.762,0.000
1587066719.346,-2.930,200.195,133.301,-26.367,0.000
1587066719.350,-36.133,-91.309,-109.375,-42.969,0.000
1587066719.354,-60.547,-166.016,-215.820,-56.152,0.000
1587066719.358,-39.062,-139.160,-180.176,-42.969,0.000
1587066719.362,-3.418,-452.637,-261.719,0.977,0.000
1587066719.366,-37.109,163.574,57.617,-28.809,0.000
1587066719.370,-57.129,142.090,-6.348,-69.336,0.000
1587066719.374,-29.297,-369.141,-286.133,-41.992,0.000
1587066719.378,-9.766,105.957,50.781,-25.879,0.000
1587066719.382,-25.391,437.988,176.270,-26.855,0.000
1587066719.385,-49.805,155.273,-0.488,-38.574,0.000
1587066719.389,-31.250,-233.887,-249.023,-26.367,0.000
1587066719.393,1.953,65.918,14.160,4.395,0.000
1587066719.397,0.000,178.223,87.891,-1.953,0.000
1587066719.401,-29.785,-140.137,-184.082,-33.203,0.000
1587066719.405,-37.598,-625.000,-491.211,-30.762,0.000
1587066719.409,-27.832,-578.613,-271.484,-17.090,0.000
1587066719.413,-18.555,386.719,204.590,-20.020,0.000
1587066719.417,-24.414,281.738,16.113,-32.227,0.000
1587066719.421,-50.293,-349.121,-261.230,-45.898,0.000
1587066719.425,-42.969,34.180,-47.852,-38.574,0.000
1587066719.428,-5.371,286.133,125.977,-8.789,0.000
1587066719.432,-21.484,-43.945,-47.852,-10.254,0.000
1587066719.436,-53.711,-196.777,-171.875,-34.668,0.000
1587066719.440,-40.039,-4.883,-38.086,-20.508,0.000
1587066719.444,-3.418,128.906,92.285,8.301,0.000
1587066719.448,-5.371,-76.172,-33.203,4.883,0.000
1587066719.452,-35.156,-703.613,-401.855,-9.766,0.000
1587066719.456,-44.922,-272.949,-169.922,-35.645,0.000
1587066719.460,-22.949,428.711,185.547,-23.926,0.000
1587066719.464,-17.090,312.988,37.598,-16.602,0.000
1587066719.468,-45.410,87.402,-6.836,-32.715,0.000
1587066719.471,-70.312,145.508,72.754,-50.781,0.000
1587066719.475,-67.383,220.215,72.754,-73.242,0.000
1587066719.479,-59.570,37.109,-54.199,-70.801,0.000
1587066719.483,-95.215,-39.062,-64.453,-87.402,0.000
1587066719.487,-142.090,-110.840,-118.164,-116.699,0.000
1587066719.491,-153.320,-168.457,-254.883,-119.629,0.000
1587066719.495,-134.766,-285.156,-255.859,-116.211,0.000
1587066719.499,-156.250,-470.703,-267.090,-134.277,0.000
1587066719.503,-216.797,-247.070,-255.371,-178.711,0.000
1587066719.507,-228.516,-38.574,-154.297,-203.125,0.000
1587066719.510,-205.566,111.816,40.039,-200.195,0.000
1587066719.514,-221.680,409.668,137.207,-208.496,0.000
1587066719.518,-250.488,320.312,91.309,-227.051,0.000
1587066719.522,-247.559,-18.555,-121.582,-231.934,0.000
1587066719.526,-207.520,-91.309,-137.695,-203.613,0.000
1587066719.530,-198.242,280.762,105.469,-184.570,0.000
1587066719.534,-239.258,296.875,65.430,-210.938,0.000
1587066719.538,-241.211,-319.336,-298.340,-209.961,0.000
1587066719.542,-190.918,-824.219,-474.609,-169.434,0.000
1587066719.546,-167.480,-242.188,-52.734,-168.457,0.000
1587066719.550,-188.477,170.410,116.211,-183.594,0.000
1587066719.553,-179.688,-119.141,-163.086,-168.457,0.000
1587066719.557,-139.160,-136.230,-166.504,-145.996,0.000
1587066719.561,-122.559,383.301,156.738,-130.371,0.000
1587066719.565,-121.094,443.848,136.719,-117.188,0.000
1587066719.569,-105.469,-122.559,-162.598,-98.145,0.000
1587066719.573,-82.520,-165.527,-143.555,-88.867,0.000
1587066719.577,-53.711,401.855,198.242,-73.242,0.000
1587066719.581,-34.668,480.957,142.578,-51.758,0.000
1587066719.585,-31.738,-354.492,-367.188,-35.156,0.000
1587066719.589,-29.297,-507.812,-362.793,-25.391,0.000
1587066719.593,-7.324,195.801,117.188,-14.648,0.000
1587066719.596,23.438,143.555,63.965,13.184,0.000
1587066719.600,8.789,-389.648,-277.832,14.648,0.000
1587066719.604,-10.254,-400.391,-311.035,-2.930,0.000
1587066719.608,20.020,24.902,-57.129,13.184,0.000
1587066719.612,54.688,303.711,121.094,41.992,0.000
1587066719.616,50.293,-156.250,-166.016,49.316,0.000
1587066719.620,14.160,-186.035,-106.934,22.949,0.000
1587066719.624,19.531,183.105,75.684,18.555,0.000
1587066719.628,64.941,168.945,51.758,56.641,0.000
1587066719.632,72.754,-232.910,-213.867,75.684,0.000
1587066719.635,35.156,-452.637,-364.258,37.109,0.000
1587066719.639,21.484,-46.387,-80.078,13.184,0.000
1587066719.643,63.965,100.098,63.477,45.410,0.000
1587066719.647,77.637,-482.422,-269.531,66.895,0.000
1587066719.651,25.391,-98.145,-30.762,18.066,0.000
1587066719.655,15.625,192.871,97.168,5.371,0.000
1587066719.659,60.059,-26.367,-40.527,45.898,0.000
1587066719.663,69.824,-5.859,-10.254,55.176,0.000
1587066719.667,24.902,113.281,70.312,21.973,0.000
1587066719.671,-3.418,75.195,33.691,0.488,0.000
1587066719.675,21.484,-112.793,-129.395,12.207,0.000
1587066719.678,49.805,-71.777,-43.457,29.785,0.000
1587066719.682,28.320,76.660,56.152,15.137,0.000
1587066719.686,0.000,40.527,-37.598,7.324,0.000
1587066719.690,16.602,-579.590,-416.504,34.180,0.000
1587066719.694,33.691,-301.270,-136.719,35.645,0.000
1587066719.698,20.996,436.035,190.430,20.996,0.000
1587066719.702,-7.812,147.949,-16.113,6.348,0.000
1587066719.706,0.000,-200.684,-176.758,12.207,0.000
1587066719.710,28.320,238.281,72.266,33.691,0.000
1587066719.714,22.461,647.949,237.305,32.715,0.000
1587066719.718,8.789,167.480,-33.691,28.320,0.000
1587066719.721,5.371,-494.141,-328.125,16.113,0.000
1587066719.725,20.020,-343.750,-188.965,18.066,0.000
1587066719.729,28.320,135.254,100.586,14.648,0.000
1587066719.733,0.977,89.355,-16.602,-10.254,0.000
1587066719.737,-10.742,-739.258,-460.449,-5.859,0.000
1587066719.741,-10.254,-225.098,-107.422,-17.578,0.000
1587066719.745,8.301,553.711,254.883,-24.414,0.000
1587066719.749,-6.836,264.648,-32.715,-21.973,0.000
1587066719.753,-42.480,-90.332,-151.367,-38.086,0.000
1587066719.757,-33.203,137.695,67.383,-33.203,0.000
1587066719.760,-2.441,460.449,178.711,-6.836,0.000
1587066719.764,-4.883,293.945,39.062,-7.324,0.000
1587066719.768,-39.551,74.219,-14.160,-31.738,0.000
1587066719.772,-49.805,-207.031,-238.770,-28.809,0.000
1587066719.776,-16.602,-85.938,-131.348,-19.531,0.000
1587066719.780,6.836,-175.293,-107.910,-8.789,0.000
1587066719.784,-29.297,-566.406,-344.238,-36.133,0.000
1587066719.788,-62.500,-212.402,-193.359,-73.242,0.000
1587066719.792,-29.785,148.926,21.973,-46.875,0.000
1587066719.796,-0.488,119.629,5.859,-13.672,0.000
1587066719.800,-30.273,277.344,73.730,-26.367,0.000
1587066719.803,-52.246,311.523,88.867,-47.363,0.000
1587066719.807,-31.738,38.086,-1.465,-45.410,0.000
1587066719.811,-13.184,59.082,52.246,-23.926,0.000
1587066719.815,-19.043,216.309,22.461,-11.719,0.000
1587066719.819,-39.551,-170.898,-247.070,-26.367,0.000
1587066719.823,-53.223,-415.039,-353.027,-38.086,0.000
1587066719.827,-34.668,-532.227,-336.914,-16.602,0.000
1587066719.831,-41.504,42.480,14.648,-38.574,0.000
1587066719.835,-67.383,200.195,1.953,-67.383,0.000
1587066719.839,-63.477,-306.152,-349.121,-47.363,0.000
1587066719.843,-24.414,-204.590,-181.152,-38.086,0.000
1587066719.846,7.324,282.227,117.188,-36.621,0.000
1587066719.850,-11.719,260.254,53.711,-39.062,0.000
1587066719.854,-29.785,-273.926,-280.762,-42.969,0.000
1587066719.858,-20.508,-116.699,-164.551,-38.086,0.000
1587066719.862,-0.977,395.508,183.105,-17.578,0.000
1587066719.866,-5.859,117.188,-52.734,-19.531,0.000
1587066719.870,-37.109,-587.891,-459.961,-43.945,0.000
1587066719.874,-40.527,-688.965,-370.605,-41.016,0.000
1587066719.878,-17.090,-44.434,2.930,-29.297,0.000
1587066719.882,-20.508,153.809,19.531,-22.949,0.000
1587066719.885,-43.945,-232.422,-289.062,-19.043,0.000
1587066719.889,-50.781,-79.102,-165.039,-31.250,0.000
1587066719.893,-38.574,346.680,152.832,-34.668,0.000
1587066719.897,-26.367,153.320,-50.293,-16.113,0.000
1587066719.901,-59.082,-183.105,-211.914,-31.738,0.000
1587066719.905,-84.961,-7.324,-22.461,-55.664,0.000
1587066719.909,-59.082,284.668,137.695,-47.363,0.000
1587066719.913,-34.668,35.645,-18.555,-20.996,0.000
1587066719.917,-48.828,-743.652,-421.387,-5.859,0.000
1587066719.921,-89.844,-402.344,-172.852,-61.523,0.000
1587066719.925,-64.941,260.254,133.789,-72.754,0.000
1587066719.928,-19.531,326.660,90.332,-28.320,0.000
1587066719.932,-37.598,173.828,13.672,-43.457,0.000
1587066719.936,-72.266,104.004,11.719,-71.777,0.000
1587066719.940,-61.523,163.086,30.273,-60.059,0.000
1587066719.944,-26.367,256.348,93.262,-35.156,0.000
1587066719.948,-21.484,335.449,132.324,-29.297,0.000
1587066719.952,-50.781,114.258,-25.879,-48.828,0.000
1587066719.956,-50.781,-230.957,-269.531,-56.641,0.000
1587066719.960,-17.090,-380.371,-294.922,-28.320,0.000
1587066719.964,-19.043,-87.891,-36.621,-27.832,0.000
1587066719.968,-58.594,180.176,82.031,-61.035,0.000
1587066719.971,-55.664,-309.570,-315.918,-50.781,0.000
1587066719.975,-23.438,-572.754,-405.762,-26.855,0.000
1587066719.979,-23.926,-105.957,20.020,-28.809,0.000
1587066719.983,-47.852,304.688,146.484,-48.340,0.000
1587066719.987,-57.617,58.105,-20.020,-55.664,0.000
1587066719.991,-38.574,-231.934,-181.641,-25.879,0.000
1587066719.995,-23.926,125.977,44.434,-26.367,0.000
1587066719.999,-38.574,387.207,170.898,-52.246,0.000
1587066720.003,-60.547,-91.797,-115.234,-51.270,0.000
1587066720.007,-47.852,-565.430,-332.520,-30.762,0.000
1587066720.010,-19.531,-147.461,-58.594,-29.785,0.000
1587066720.014,-9.766,138.672,31.250,-16.113,0.000
1587066720.018,-26.855,-319.336,-322.266,-5.859,0.000
1587066720.022,-45.410,-641.602,-335.938,-21.973,0.000
1587066720.026,-39.062,132.812,125.000,-33.203,0.000
1587066720.030,-28.809,457.031,154.785,-22.949,0.000
1587066720.034,-41.016,-29.785,-83.008,-28.809,0.000
1587066720.038,-53.223,-117.676,-54.199,-47.363,0.000
1587066720.042,-34.180,219.727,150.879,-34.668,0.000
1587066720.046,-5.859,339.844,157.715,-1.465,0.000
1587066720.050,-19.531,-106.445,-140.137,0.977,0.000
1587066720.053,-45.410,-487.793,-389.160,-20.996,0.000
1587066720.057,-30.273,-298.340,-239.746,-21.973,0.000
1587066720.061,-13.184,56.641,25.391,-23.926,0.000
1587066720.065,-13.672,-410.645,-306.152,-17.090,0.000
1587066720.069,-35.645,-680.176,-403.809,-26.367,0.000
1587066720.073,-46.875,-248.535,-224.121,-39.551,0.000
1587066720.077,-17.090,6.836,-32.227,-19.043,0.000
1587066720.081,-12.695,63.477,32.715,-3.906,0.000
1587066720.085,-44.922,146.484,37.109,-36.621,0.000
1587066720.089,-55.176,99.609,1.953,-60.547,0.000
1587066720.093,-31.250,159.668,104.492,-32.715,0.000
1587066720.096,-22.461,207.520,117.188,-13.672,0.000
1587066720.100,-47.852,-231.445,-271.484,-35.645,0.000
1587066720.104,-71.289,-292.969,-259.277,-68.848,0.000
1587066720.108,-35.156,19.531,-6.348,-44.922,0.000
1587066720.112,0.488,-381.836,-265.625,-3.418,0.000
1587066720.116,-33.203,1.465,-14.648,-33.203,0.000
1587066720.120,-44.922,258.789,126.953,-55.176,0.000
1587066720.124,-18.555,-26.367,-44.434,-30.762,0.000
1587066720.128,12.695,197.266,115.234,-10.254,0.000
1587066720.132,5.371,195.312,61.523,-17.090,0.000
1587066720.135,-40.039,-12.207,-15.625,-49.805,0.000
1587066720.139,-37.109,-205.566,-159.180,-47.852,0.000
1587066720.143,-7.812,48.340,35.645,-18.066,0.000
1587066720.147,-14.648,45.898,29.297,6.348,0.000
1587066720.151,-42.480,-256.348,-280.273,-8.789,0.000
1587066720.155,-28.809,-672.852,-515.625,-13.184,0.000
1587066720.159,2.930,-703.125,-339.355,7.812,0.000
1587066720.163,-7.812,260.742,151.855,-5.371,0.000
1587066720.167,-38.574,244.629,12.695,-20.508,0.000
1587066720.171,-50.293,-271.973,-237.793,-29.297,0.000
1587066720.175,-38.086,156.250,52.734,-31.738,0.000
1587066720.178,-28.320,566.895,207.031,-24.414,0.000
1587066720.182,-31.250,302.734,60.059,-19.531,0.000
1587066720.186,-63.477,-201.660,-194.824,-39.551,0.000
1587066720.190,-61.523,-245.605,-239.258,-43.945,0.000
1587066720.194,-29.297,41.992,14.160,-24.902,0.000
1587066720.198,-30.762,4.395,-26.855,-26.367,0.000
1587066720.202,-45.898,-709.473,-407.715,-27.832,0.000
1587066720.206,-65.430,-331.543,-143.066,-44.922,0.000
1587066720.210,-47.852,395.996,187.012,-46.875,0.000
1587066720.214,-32.227,263.184,23.926,-20.508,0.000
1587066720.218,-61.035,-1.465,-43.457,-28.809,0.000
1587066720.221,-60.059,11.719,13.184,-45.898,0.000
1587066720.225,-41.992,167.969,66.895,-41.504,0.000
1587066720.229,-36.133,135.742,-32.227,-43.457,0.000
1587066720.233,-51.270,93.262,-3.906,-65.918,0.000
1587066720.237,-69.824,102.539,33.691,-80.078,0.000
1587066720.241,-23.926,-120.117,-233.887,-40.527,0.000
1587066720.245,11.719,-509.277,-422.852,0.000,0.000
1587066720.249,-15.137,-696.777,-346.680,-20.508,0.000
1587066720.253,-56.152,-356.934,-283.203,-63.477,0.000
1587066720.257,-56.641,-2.441,-145.020,-63.965,0.000
1587066720.260,-20.508,-4.395,-20.508,-27.344,0.000
1587066720.264,-13.184,69.824,33.203,-21.973,0.000
1587066720.268,-53.711,245.117,106.445,-50.781,0.000
1587066720.272,-58.594,28.320,-69.336,-52.246,0.000
1587066720.276,-26.367,-60.059,-97.168,-26.367,0.000
1587066720.280,-25.879,316.895,123.535,-18.066,0.000
1587066720.284,-46.387,346.191,113.770,-36.621,0.000
1587066720.288,-47.852,-207.031,-198.730,-31.738,0.000
1587066720.292,-11.719,-797.363,-456.055,8.301,0.000
1587066720.296,3.418,-138.184,-22.949,4.395,0.000
1587066720.300,-20.996,360.840,185.547,-28.320,0.000
1587066720.303,-36.133,-204.590,-183.594,-40.039,0.000
1587066720.307,-13.672,-338.379,-224.609,-20.020,0.000
1587066720.311,0.000,258.789,127.930,-12.207,0.000
1587066720.315,-20.020,320.312,111.328,-28.809,0.000
1587066720.319,-31.250,-226.562,-205.078,-35.645,0.000
1587066720.323,-32.715,-223.633,-205.566,-41.504,0.000
1587066720.327,-31.738,354.004,147.461,-36.133,0.000
1587066720.331,-25.879,470.215,172.363,-26.855,0.000
1587066720.335,-46.875,-125.000,-151.367,-39.062,0.000
1587066720.339,-52.734,-387.207,-308.105,-46.387,0.000
1587066720.343,-22.949,133.301,47.363,-26.855,0.000
1587066720.346,-4.395,143.555,16.602,-5.859,0.000
1587066720.350,-27.344,-458.008,-386.719,-18.066,0.000
1587066720.354,-63.965,-324.707,-154.785,-52.246,0.000
1587066720.358,-43.945,333.008,194.824,-48.828,0.000
1587066720.362,-9.277,320.801,54.688,-14.160,0.000
1587066720.366,-23.926,-8.301,-90.332,-11.719,0.000
1587066720.370,-54.199,39.551,17.578,-45.898,0.000
1587066720.374,-40.039,235.352,100.098,-41.992,0.000
1587066720.378,-1.953,293.945,96.680,-15.625,0.000
1587066720.382,0.977,-66.406,-176.270,-10.254,0.000
1587066720.385,-38.574,-267.090,-300.781,-33.203,0.000
1587066720.389,-51.758,9.766,-60.059,-49.805,0.000
1587066720.393,-17.578,161.621,94.238,-24.902,0.000
1587066720.397,-16.113,107.422,68.848,-14.648,0.000
1587066720.401,-47.363,35.645,2.441,-42.480,0.000
1587066720.405,-51.758,62.500,10.742,-51.270,0.000
1587066720.409,-9.766,-164.062,-105.957,-19.531,0.000
1587066720.413,9.766,-719.238,-401.367,12.207,0.000
1587066720.417,-55.664,-242.676,-190.430,-42.480,0.000
1587066720.421,-76.660,-64.941,-181.152,-60.547,0.000
1587066720.425,-37.598,-266.113,-302.734,-16.113,0.000
1587066720.428,-9.277,-32.715,-32.715,-4.395,0.000
1587066720.432,-25.391,67.871,49.316,-22.461,0.000
1587066720.436,-68.848,131.836,19.043,-41.992,0.000
1587066720.440,-46.387,-408.203,-360.840,-28.320,0.000
1587066720.444,-13.672,-306.152,-179.688,-13.672,0.000
1587066720.448,-29.297,406.250,200.684,-17.090,0.000
1587066720.452,-55.664,139.648,-12.695,-25.391,0.000
1587066720.456,-50.781,-172.852,-140.137,-37.598,0.000
1587066720.460,-25.879,243.164,108.398,-32.227,0.000
1587066720.464,-20.508,556.641,204.590,-28.320,0.000
1587066720.468,-56.641,213.867,17.578,-45.410,0.000
1587066720.471,-69.336,-246.582,-225.586,-53.711,0.000
1587066720.475,-37.109,-266.113,-244.629,-32.715,0.000
1587066720.479,-22.461,-105.957,-158.691,-36.133,0.000
1587066720.483,-44.922,-260.254,-309.082,-51.270,0.000
1587066720.487,-51.270,-790.527,-490.723,-39.551,0.000
1587066720.491,-50.781,-131.836,-2.930,-53.223,0.000
1587066720.495,-32.227,504.395,219.727,-47.852,0.000
1587066720.499,-26.367,205.566,-13.184,-31.738,0.000
1587066720.503,-49.316,2.930,-8.301,-45.410,0.000
1587066720.507,-59.570,214.844,96.680,-60.059,0.000
1587066720.510,-36.133,420.410,158.691,-44.922,0.000
1587066720.514,-31.738,156.250,-41.016,-27.344,0.000
1587066720.518,-69.336,-84.473,-171.875,-50.293,0.000
1587066720.522,-68.359,-215.332,-253.906,-62.988,0.000
1587066720.526,-37.598,-76.172,-166.992,-43.945,0.000
1587066720.530,-24.902,-195.312,-133.301,-18.066,0.000
1587066720.534,-41.504,-650.879,-345.215,-25.391,0.000
1587066720.538,-64.941,-222.168,-198.730,-58.105,0.000
1587066720.542,-38.574,24.414,-81.055,-45.898,0.000
1587066720.546,-20.020,65.918,-12.695,-22.461,0.000
1587066720.550,-57.129,231.934,61.523,-30.273,0.000
1587066720.553,-79.102,222.168,74.219,-53.711,0.000
1587066720.557,-37.598,141.113,75.195,-40.039,0.000
1587066720.561,-2.441,128.418,62.012,-15.625,0.000
1587066720.565,-25.879,250.488,92.773,-27.832,0.000
1587066720.569,-57.129,-40.527,-84.473,-52.246,0.000
1587066720.573,-43.457,-402.832,-335.938,-36.133,0.000
1587066720.577,-0.488,-600.586,-356.445,10.742,0.000
1587066720.581,-26.367,85.938,46.875,-23.438,0.000
1587066720.585,-74.219,401.367,158.203,-63.965,0.000
1587066720.589,-74.219,-15.137,-127.930,-59.570,0.000
1587066720.593,-43.457,144.043,-22.461,-48.340,0.000
1587066720.596,-24.414,232.910,34.668,-29.785,0.000
1587066720.600,-47.363,-64.453,-171.387,-30.762,0.000
1587066720.604,-65.918,-165.527,-201.172,-44.922,0.000
1587066720.608,-36.133,90.332,0.000,-27.832,0.000
1587066720.612,-9.277,391.602,158.691,0.000,0.000
1587066720.616,-19.531,129.395,-36.621,-20.020,0.000
1587066720.620,-34.180,-513.672,-417.480,-36.133,0.000
1587066720.624,-28.809,-615.234,-330.566,-26.855,0.000
1587066720.628,-18.066,130.371,101.074,-25.879,0.000
1587066720.632,-23.926,370.117,97.168,-40.527,0.000
1587066720.635,-49.805,-134.277,-277.344,-62.988,0.000
1587066720.639,-58.594,-96.191,-197.754,-66.406,0.000
1587066720.643,-27.832,412.598,169.922,-49.805,0.000
1587066720.647,-17.578,415.527,114.746,-30.762,0.000
1587066720.651,-51.270,-65.430,-171.875,-44.434,0.000
1587066720.655,-62.500,-239.258,-307.617,-63.477,0.000
1587066720.659,-40.039,103.027,-41.504,-40.527,0.000
1587066720.663,-20.020,139.160,42.480,-13.672,0.000
1587066720.667,-26.367,-669.434,-399.414,-21.973,0.000
1587066720.671,-60.547,-404.785,-216.309,-60.059,0.000
1587066720.675,-41.504,181.641,85.449,-58.594,0.000
1587066720.678,-9.766,132.812,22.461,-26.367,0.000
1587066720.682,-31.250,-118.652,-195.801,-18.066,0.000
1587066720.686,-55.176,-215.332,-258.301,-48.340,0.000
1587066720.690,-41.992,-9.766,-150.879,-51.758,0.000
1587066720.694,-15.625,-1.465,-37.598,-23.926,0.000
1587066720.698,-22.461,159.668,98.145,-28.320,0.000
1587066720.702,-50.781,270.996,91.797,-51.270,0.000
1587066720.706,-55.176,157.227,54.199,-48.340,0.000
1587066720.710,-15.137,-3.906,-27.344,-9.766,0.000
1587066720.714,-17.578,52.734,24.414,-4.883,0.000
1587066720.718,-54.199,-2.930,16.602,-34.668,0.000
1587066720.721,-56.152,-219.238,-232.910,-51.758,0.000
1587066720.725,-24.414,-417.480,-349.121,-19.531,0.000
1587066720.729,-4.883,-158.203,-41.016,3.418,0.000
1587066720.733,-16.602,401.367,193.359,-10.742,0.000
1587066720.737,-26.855,154.297,2.930,-15.137,0.000
1587066720.741,-20.020,-58.105,-54.199,-19.531,0.000
1587066720.745,6.348,362.305,133.301,-12.695,0.000
1587066720.749,-3.418,403.320,111.328,-9.766,0.000
1587066720.753,-36.133,-91.309,-115.723,-33.203,0.000
1587066720.757,-23.926,-487.305,-327.637,-27.832,0.000
1587066720.760,-8.301,-104.492,-74.707,-14.648,0.000
1587066720.764,-31.738,482.910,212.891,-23.438,0.000
1587066720.768,-44.434,15.625,-115.723,-26.855,0.000
1587066720.772,-36.621,-721.680,-391.113,-18.555,0.000
1587066720.776,-23.926,-18.555,62.988,-17.578,0.000
1587066720.780,-17.578,525.879,206.055,3.418,0.000
1587066720.784,-38.574,-12.207,-168.457,2.930,0.000
1587066720.788,-54.199,-180.176,-144.531,-18.555,0.000
1587066720.792,-16.113,225.586,129.883,-0.977,0.000
1587066720.796,18.066,379.883,152.344,7.812,0.000
1587066720.800,-16.113,22.949,-62.988,-12.695,0.000
1587066720.803,-47.363,-405.762,-360.840,-23.926,0.000
1587066720.807,-19.043,-248.047,-189.453,-18.555,0.000
1587066720.811,1.953,291.016,160.156,-7.812,0.000
1587066720.815,-8.301,-296.875,-252.441,2.441,0.000
1587066720.819,-47.363,-649.414,-352.051,-30.762,0.000
1587066720.823,-52.734,62.988,45.410,-50.781,0.000
1587066720.827,-13.184,198.242,65.430,-13.672,0.000
1587066720.831,-19.043,-105.469,-146.973,4.395,0.000
1587066720.835,-63.477,27.832,-8.789,-33.691,0.000
1587066720.839,-70.312,156.738,64.941,-62.012,0.000
1587066720.843,-31.738,157.715,62.500,-28.320,0.000
1587066720.846,-12.695,158.203,76.172,3.906,0.000
1587066720.850,-41.992,-131.836,-124.023,-23.926,0.000
1587066720.854,-60.059,-339.844,-316.895,-53.711,0.000
1587066720.858,-38.574,-177.734,-188.965,-39.551,0.000
1587066720.862,-10.254,-531.738,-315.918,0.000,0.000
1587066720.866,-41.016,-251.953,-159.668,-24.902,0.000
1587066720.870,-68.359,87.402,8.789,-61.035,0.000
1587066720.874,-44.922,-64.941,-61.523,-50.293,0.000
1587066720.878,-19.043,186.523,105.469,-35.645,0.000
1587066720.882,-28.809,532.715,185.059,-40.527,0.000
1587066720.885,-54.688,205.078,-23.438,-46.387,0.000
1587066720.889,-50.293,-167.969,-189.941,-33.203,0.000
1587066720.893,-29.297,157.715,67.871,-20.996,0.000
1587066720.897,-29.785,125.000,-20.020,-17.578,0.000
1587066720.901,-51.758,-315.918,-356.934,-27.344,0.000
1587066720.905,-36.133,-698.730,-485.840,-19.531,0.000
1587066720.909,-11.230,-605.469,-296.387,-5.371,0.000
1587066720.913,-24.414,304.199,147.949,-20.996,0.000
1587066720.917,-43.457,352.539,97.656,-34.668,0.000
1587066720.921,-44.922,-198.242,-221.680,-27.832,0.000
1587066720.925,-35.156,28.320,-52.734,-26.367,0.000
1587066720.928,-28.320,501.465,193.848,-27.832,0.000
1587066720.932,-43.457,299.316,34.180,-35.156,0.000
1587066720.936,-66.895,-107.910,-157.715,-51.270,0.000
1587066720.940,-59.082,23.438,-38.574,-44.434,0.000
1587066720.944,-37.109,20.020,-11.230,-28.809,0.000
1587066720.948,-39.062,-166.992,-158.203,-37.109,0.000
1587066720.952,-55.664,-752.930,-475.586,-37.109,0.000
1587066720.956,-68.359,-389.648,-229.004,-55.664,0.000
1587066720.960,-43.457,370.605,161.621,-55.176,0.000
1587066720.964,-21.973,354.492,90.820,-40.527,0.000
1587066720.968,-44.434,94.238,15.625,-45.898,0.000
1587066720.971,-46.875,57.617,35.645,-48.828,0.000
1587066720.975,-16.602,247.559,109.863,-27.832,0.000
1587066720.979,0.000,180.664,20.020,3.906,0.000
1587066720.983,-24.414,14.160,-24.902,-13.672,0.000
1587066720.987,-46.387,-44.922,-61.035,-45.898,0.000
1587066720.991,-25.391,-116.699,-198.730,-37.598,0.000
1587066720.995,8.789,-261.230,-182.129,1.953,0.000
1587066720.999,-10.254,-427.734,-230.957,-6.348,0.000
1587066721.003,-52.734,-269.531,-270.996,-53.711,0.000
1587066721.007,-46.875,-256.836,-327.637,-59.082,0.000
1587066721.010,-21.973,-46.387,-83.008,-32.227,0.000
1587066721.014,-32.715,368.652,160.156,-29.785,0.000
1587066721.018,-65.430,361.328,106.445,-44.434,0.000
1587066721.022,-55.664,91.797,-37.598,-32.715,0.000
1587066721.026,-17.578,-47.852,-90.332,-19.531,0.000
1587066721.030,-21.973,250.977,104.004,-29.297,0.000
1587066721.034,-53.223,248.047,72.266,-48.828,0.000
1587066721.038,-51.758,-274.902,-293.457,-53.711,0.000
1587066721.042,-4.883,-779.785,-418.457,-9.766,0.000
1587066721.046,-12.207,-62.500,56.641,2.441,0.000
1587066721.050,-53.223,407.715,154.297,-26.367,0.000
1587066721.053,-69.336,-44.434,-98.145,-54.199,0.000
1587066721.057,-62.500,40.039,-51.270,-55.664,0.000
1587066721.061,-32.227,415.039,146.973,-26.855,0.000
1587066721.065,-25.391,93.750,-58.594,-19.043,0.000
1587066721.069,-57.129,-351.074,-328.613,-42.969,0.000
1587066721.073,-63.477,-154.297,-142.090,-49.316,0.000
1587066721.077,-29.785,364.258,158.691,-31.738,0.000
1587066721.081,-17.090,418.945,111.816,-18.555,0.000
1587066721.085,-33.203,-258.789,-237.793,-28.320,0.000
1587066721.089,-61.035,-457.520,-304.199,-61.035,0.000
1587066721.093,-54.688,115.234,69.824,-64.941,0.000
1587066721.096,-36.133,147.461,58.105,-43.945,0.000
1587066721.100,-59.082,-431.641,-309.082,-52.246,0.000
1587066721.104,-89.355,-384.277,-216.797,-75.684,0.000
1587066721.108,-68.359,139.160,45.898,-55.176,0.000
1587066721.112,-20.508,263.672,77.148,-6.348,0.000
1587066721.116,-24.902,-102.539,-153.809,-27.832,0.000
1587066721.120,-67.871,-416.504,-386.719,-74.707,0.000
1587066721.124,-76.660,-253.906,-243.164,-83.984,0.000
1587066721.128,-47.363,143.066,71.777,-62.988,0.000
1587066721.132,-45.898,-168.945,-218.262,-55.664,0.000
1587066721.135,-75.684,-356.934,-316.895,-78.125,0.000
1587066721.139,-77.148,18.555,-77.148,-80.566,0.000
1587066721.143,-55.664,195.801,44.434,-47.363,0.000
1587066721.147,-41.992,-87.891,-75.195,-27.344,0.000
1587066721.151,-81.055,117.188,63.477,-80.566,0.000
1587066721.155,-73.242,257.812,85.938,-93.750,0.000
1587066721.159,-27.344,124.023,28.320,-40.527,0.000
1587066721.163,-16.602,330.078,157.715,-20.020,0.000
1587066721.167,-40.039,421.875,137.695,-46.387,0.000
1587066721.171,-79.102,167.480,43.457,-76.660,0.000
1587066721.175,-48.340,-69.336,-51.270,-58.594,0.000
1587066721.178,-23.926,-173.340,-105.469,-26.855,0.000
1587066721.182,-49.316,-125.488,-125.488,-43.457,0.000
1587066721.186,-63.477,-200.195,-256.348,-72.754,0.000
1587066721.190,-54.199,-579.590,-470.703,-51.270,0.000
1587066721.194,-35.156,-331.543,-187.012,-35.156,0.000
1587066721.198,-49.805,375.000,158.691,-52.246,0.000
1587066721.202,-78.125,145.508,-21.484,-61.035,0.000
1587066721.206,-68.848,-181.152,-176.758,-54.688,0.000
1587066721.210,-37.598,249.512,97.168,-35.645,0.000
1587066721.214,-30.762,516.113,194.824,-28.320,0.000
1587066721.218,-62.012,91.797,-42.480,-48.828,0.000
1587066721.221,-72.754,-253.906,-230.957,-59.082,0.000
1587066721.225,-36.133,-49.316,-98.145,-37.598,0.000
1587066721.229,-24.902,384.277,153.809,-27.344,0.000
1587066721.233,-41.992,225.586,13.672,-41.504,0.000
1587066721.237,-41.992,-769.531,-517.578,-32.227,0.000
1587066721.241,-38.574,-443.359,-317.871,-35.156,0.000
1587066721.245,-28.809,468.750,161.621,-36.133,0.000
1587066721.249,-44.434,332.520,25.879,-29.785,0.000
1587066721.253,-73.730,7.324,-92.285,-47.852,0.000
1587066721.257,-44.434,128.418,14.160,-41.016,0.000
1587066721.260,5.371,479.980,161.133,-11.719,0.000
1587066721.264,-8.301,360.352,26.367,-4.883,0.000
1587066721.268,-64.941,90.820,-60.547,-43.457,0.000
1587066721.272,-71.289,-128.906,-229.492,-56.152,0.000
1587066721.276,-30.762,-19.531,-155.762,-17.578,0.000
1587066721.280,-9.277,-79.102,-119.629,13.184,0.000
1587066721.284,-43.945,-562.988,-395.996,-11.230,0.000
1587066721.288,-70.801,-70.312,-154.297,-46.875,0.000
1587066721.292,-32.227,391.602,111.328,-30.273,0.000
1587066721.296,-13.184,132.812,-33.691,-24.414,0.000
1587066721.300,-38.574,-35.645,-128.418,-39.062,0.000
1587066721.303,-57.617,92.285,-47.852,-49.805,0.000
1587066721.307,-30.273,182.129,58.594,-29.297,0.000
1587066721.311,-10.742,269.043,109.863,-15.137,0.000
1587066721.315,-34.180,314.453,33.691,-29.297,0.000
1587066721.319,-47.852,-128.418,-272.461,-36.133,0.000
1587066721.323,-41.504,-333.496,-352.539,-37.109,0.000
1587066721.327,-13.672,-473.145,-335.938,-15.137,0.000
1587066721.331,-22.949,57.129,0.488,-24.902,0.000
1587066721.335,-59.082,342.285,66.895,-46.875,0.000
1587066721.339,-63.477,96.680,-51.270,-52.246,0.000
1587066721.343,-40.527,334.473,132.812,-43.945,0.000
1587066721.346,-32.227,569.824,172.363,-37.598,0.000
1587066721.350,-58.105,398.438,88.379,-54.688,0.000
1587066721.354,-58.594,-94.238,-185.547,-56.152,0.000
1587066721.358,-33.203,-8.789,-124.023,-45.410,0.000
1587066721.362,-20.508,480.957,157.715,-30.273,0.000
1587066721.366,-25.879,213.867,-73.730,-33.691,0.000
1587066721.370,-35.645,-414.551,-416.992,-42.969,0.000
1587066721.374,-16.602,-514.648,-268.066,-26.367,0.000
1587066721.378,-0.977,184.082,112.305,-20.508,0.000
1587066721.382,-22.949,357.422,66.406,-25.879,0.000
1587066721.385,-55.664,-92.773,-237.793,-40.527,0.000
1587066721.389,-55.176,114.746,-64.453,-41.992,0.000
1587066721.393,-24.902,620.605,222.168,-24.414,0.000
1587066721.397,-8.789,502.441,73.730,-16.602,0.000
1587066721.401,-45.898,28.320,-135.254,-31.738,0.000
1587066721.405,-65.918,124.512,-0.977,-49.316,0.000
1587066721.409,-24.902,404.785,141.602,-39.551,0.000
1587066721.413,0.488,152.832,-70.801,-12.695,0.000
1587066721.417,-18.555,-598.633,-445.312,-1.953,0.000
1587066721.421,-56.152,-380.371,-303.711,-40.527,0.000
1587066721.425,-40.527,334.473,89.844,-49.316,0.000
1587066721.428,-5.859,361.816,69.336,-22.461,0.000
1587066721.432,-29.785,86.426,-149.414,-33.691,0.000
1587066721.436,-65.918,37.109,-215.332,-57.617,0.000
1587066721.440,-47.852,145.020,-159.668,-44.922,0.000
1587066721.444,-11.719,232.422,4.395,-21.484,0.000
1587066721.448,-29.785,277.832,58.594,-33.691,0.000
1587066721.452,-63.965,141.602,-54.688,-52.734,0.000
1587066721.456,-49.316,89.355,-53.711,-49.316,0.000
1587066721.460,-11.230,-17.578,-57.129,-17.578,0.000
1587066721.464,-14.160,112.793,21.973,-6.836,0.000
1587066721.468,-45.410,241.211,38.086,-39.551,0.000
1587066721.471,-42.480,-186.035,-316.895,-48.340,0.000
1587066721.475,0.000,-454.102,-438.477,-0.977,0.000
1587066721.479,-6.836,-90.820,-40.527,-2.441,0.000
1587066721.483,-49.805,304.688,124.023,-53.711,0.000
1587066721.487,-57.129,173.340,0.000,-62.500,0.000
1587066721.491,-22.461,-61.035,-125.488,-32.227,0.000
1587066721.495,-16.113,218.750,52.246,-20.996,0.000
1587066721.499,-32.715,404.297,130.371,-31.250,0.000
1587066721.503,-50.781,160.645,0.488,-41.992,0.000
1587066721.507,-27.344,-261.230,-303.223,-25.879,0.000
1587066721.510,11.230,-84.961,-172.363,4.883,0.000
1587066721.514,-19.043,534.180,199.707,-19.043,0.000
1587066721.518,-44.922,124.512,-71.289,-37.598,0.000
1587066721.522,-23.926,-765.137,-478.027,-6.836,0.000
1587066721.526,-21.973,-110.352,-11.230,-13.184,0.000
1587066721.530,-23.438,298.340,137.207,-20.508,0.000
1587066721.534,-35.645,-131.836,-218.750,-31.250,0.000
1587066721.538,-57.617,-53.711,-131.836,-59.082,0.000
1587066721.542,-42.969,331.543,125.000,-45.410,0.000
1587066721.546,-20.020,518.066,177.246,-20.020,0.000
1587066721.550,-35.645,124.512,-51.270,-22.461,0.000
1587066721.553,-54.688,-388.672,-375.488,-32.715,0.000
1587066721.557,-41.992,-178.711,-233.887,-29.785,0.000
1587066721.561,-17.578,349.121,122.559,-20.508,0.000
1587066721.565,-24.414,-208.496,-199.707,-14.648,0.000
1587066721.569,-64.941,-605.957,-334.961,-41.992,0.000
1587066721.573,-62.012,62.012,3.418,-50.293,0.000
1587066721.577,-20.020,344.727,94.238,-25.879,0.000
1587066721.581,-28.320,115.234,-20.996,-29.297,0.000
1587066721.585,-70.801,108.887,6.348,-61.035,0.000
1587066721.589,-65.430,7.812,-150.879,-62.988,0.000
1587066721.593,-28.809,-147.461,-289.062,-35.156,0.000
1587066721.596,-26.855,52.246,-106.934,-30.273,0.000
1587066721.600,-47.852,-131.836,-196.289,-42.480,0.000
1587066721.604,-57.129,-183.105,-278.320,-40.039,0.000
1587066721.608,-36.133,17.578,-135.742,-15.625,0.000
1587066721.612,3.418,-478.027,-327.148,-2.441,0.000
1587066721.616,-35.645,-104.004,-69.336,-44.922,0.000
1587066721.620,-73.242,210.938,64.941,-68.848,0.000
1587066721.624,-42.969,-14.160,-62.988,-47.852,0.000
1587066721.628,-19.531,174.316,84.473,-18.555,0.000
1587066721.632,-37.109,382.324,129.883,-24.414,0.000
1587066721.635,-66.895,164.551,-8.301,-58.594,0.000
1587066721.639,-52.734,-189.453,-243.164,-45.898,0.000
1587066721.643,-24.902,6.348,6.836,-17.578,0.000
1587066721.647,-20.996,9.766,-21.484,-20.020,0.000
1587066721.651,-42.480,-341.309,-341.797,-42.480,0.000
1587066721.655,-41.992,-714.844,-509.766,-34.668,0.000
1587066721.659,-23.926,-623.535,-276.855,-8.301,0.000
1587066721.663,-30.273,184.082,143.555,-14.160,0.000
1587066721.667,-45.898,224.121,65.918,-27.832,0.000
1587066721.671,-53.711,-184.082,-228.027,-37.598,0.000
1587066721.675,-41.992,58.594,-67.871,-40.527,0.000
1587066721.678,-28.809,470.215,194.824,-34.668,0.000
1587066721.682,-41.992,195.312,1.953,-46.387,0.000
1587066721.686,-61.035,-245.117,-203.613,-55.664,0.000
1587066721.690,-49.316,4.883,-50.293,-38.574,0.000
1587066721.694,-29.785,197.754,90.332,-25.879,0.000
1587066721.698,-33.691,-58.105,-81.543,-28.320,0.000
1587066721.702,-62.988,-710.449,-439.941,-41.504,0.000
1587066721.706,-77.148,-453.125,-257.812,-62.500,0.000
1587066721.710,-41.504,282.715,137.207,-36.621,0.000
1587066721.714,-25.391,349.609,106.445,-25.391,0.000
1587066721.718,-56.641,50.293,27.832,-52.246,0.000
1587066721.721,-72.754,118.164,69.336,-63.965,0.000
1587066721.725,-33.203,342.285,146.973,-35.156,0.000
1587066721.729,-7.812,311.035,117.676,-1.465,0.000
1587066721.733,-37.109,132.812,52.246,-20.020,0.000
1587066721.737,-60.547,-27.832,-20.020,-42.969,0.000
1587066721.741,-30.762,-80.078,-57.617,-22.461,0.000
1587066721.745,17.578,-278.809,-116.211,14.160,0.000
1587066721.749,-9.277,-479.492,-207.031,-6.836,0.000
1587066721.753,-62.988,-288.574,-202.637,-49.316,0.000
1587066721.757,-62.500,1.465,-65.430,-51.270,0.000
1587066721.760,-32.227,196.777,87.402,-28.320,0.000
1587066721.764,-28.320,274.414,97.656,-23.438,0.000
1587066721.768,-62.012,79.102,48.340,-53.223,0.000
1587066721.772,-66.895,-117.676,-65.430,-44.434,0.000
1587066721.776,-34.668,-76.660,-58.594,-4.883,0.000
1587066721.780,-24.414,234.863,121.582,-7.812,0.000
1587066721.784,-45.898,155.273,70.801,-37.109,0.000
1587066721.788,-54.199,-381.836,-310.547,-41.016,0.000
1587066721.792,-15.137,-837.402,-462.402,-8.789,0.000
1587066721.796,-10.254,-57.129,24.902,-12.207,0.000
1587066721.800,-38.086,429.688,180.664,-27.832,0.000
1587066721.803,-52.734,-37.109,-122.559,-38.086,0.000
1587066721.807,-41.016,-5.371,-93.750,-34.180,0.000
1587066721.811,-8.789,437.012,169.434,-10.742,0.000
1587066721.815,-25.879,419.922,126.953,-20.020,0.000
1587066721.819,-55.664,-125.977,-132.324,-27.832,0.000
1587066721.823,-45.898,-314.941,-272.949,-28.809,0.000
1587066721.827,-25.391,261.230,93.750,-24.414,0.000
1587066721.831,-25.879,574.707,227.051,-16.113,0.000
1587066721.835,-41.016,-114.258,-145.020,-23.926,0.000
1587066721.839,-40.039,-470.703,-281.250,-38.086,0.000
1587066721.843,-11.230,145.996,93.262,-21.484,0.000
1587066721.846,5.371,169.434,44.434,5.859,0.000
1587066721.850,-23.926,-458.496,-431.641,-10.742,0.000
1587066721.854,-48.828,-434.082,-331.055,-45.410,0.000
1587066721.858,-35.156,153.809,93.262,-44.434,0.000
1587066721.862,-16.113,310.547,105.957,-21.484,0.000
1587066721.866,-27.832,-24.902,-155.762,-18.555,0.000
1587066721.870,-58.105,-32.715,-66.406,-52.246,0.000
1587066721.874,-51.270,236.328,99.609,-55.664,0.000
1587066721.878,-19.531,120.117,-1.465,-24.902,0.000
1587066721.882,-26.855,-337.891,-269.043,-20.020,0.000
1587066721.885,-59.570,-581.543,-400.391,-44.434,0.000
1587066721.889,-62.500,-281.250,-201.172,-55.176,0.000
1587066721.893,-31.250,-15.137,-8.789,-25.879,0.000
1587066721.897,-23.438,-401.367,-277.344,-1.465,0.000
1587066721.901,-71.777,-144.043,-142.578,-48.340,0.000
1587066721.905,-76.660,24.414,-12.207,-65.430,0.000
1587066721.909,-39.062,23.926,32.227,-29.297,0.000
1587066721.913,-32.715,295.898,158.203,-14.160,0.000
1587066721.917,-56.641,276.855,89.355,-42.480,0.000
1587066721.921,-66.406,36.133,16.602,-59.082,0.000
1587066721.925,-31.738,-183.594,-203.613,-30.273,0.000
1587066721.928,-12.695,-201.172,-208.008,-14.648,0.000
1587066721.932,-45.410,-73.242,-19.043,-29.785,0.000
1587066721.936,-79.590,-111.816,-82.520,-51.270,0.000
1587066721.940,-32.715,-686.035,-453.125,-25.391,0.000
1587066721.944,-16.602,-560.059,-226.074,-10.254,0.000
1587066721.948,-58.594,232.422,144.043,-48.828,0.000
1587066721.952,-80.078,-108.887,-162.109,-67.871,0.000
1587066721.956,-91.797,-368.164,-284.180,-71.289,0.000
1587066721.960,-76.660,215.820,91.309,-76.660,0.000
1587066721.964,-75.684,477.051,182.617,-87.891,0.000
1587066721.968,-115.723,132.812,48.828,-106.934,0.000
1587066721.971,-139.648,-244.141,-202.637,-116.211,0.000
1587066721.975,-133.301,-266.113,-253.906,-139.160,0.000
1587066721.979,-150.391,91.797,28.809,-164.062,0.000
1587066721.983,-188.965,69.824,-0.488,-188.965,0.000
1587066721.987,-212.402,-754.883,-429.199,-213.379,0.000
1587066721.991,-212.402,-261.719,-134.277,-221.191,0.000
1587066721.995,-201.172,437.500,184.570,-208.984,0.000
1587066721.999,-229.492,72.266,-44.434,-229.492,0.000
1587066722.003,-267.578,-329.102,-311.035,-260.742,0.000
1587066722.007,-273.438,-151.855,-231.445,-260.742,0.000
1587066722.010,-250.977,230.469,82.520,-241.699,0.000
1587066722.014,-237.793,26.855,-58.594,-230.957,0.000
1587066722.018,-267.090,-203.125,-195.312,-246.094,0.000
1587066722.022,-261.230,-402.832,-315.918,-226.074,0.000
1587066722.026,-210.938,-244.141,-265.625,-200.684,0.000
1587066722.030,-201.172,-375.977,-318.848,-210.938,0.000
1587066722.034,-236.328,-848.145,-473.145,-224.121,0.000
1587066722.038,-232.422,-280.273,-201.660,-221.680,0.000
1587066722.042,-182.617,261.719,99.121,-182.129,0.000
1587066722.046,-160.156,144.531,40.527,-158.691,0.000
1587066722.050,-183.105,87.402,40.039,-172.363,0.000
1587066722.053,-179.688,19.043,-53.711,-172.363,0.000
1587066722.057,-128.906,-154.785,-184.570,-134.277,0.000
1587066722.061,-99.121,36.621,36.133,-109.863,0.000
1587066722.065,-98.145,247.559,97.168,-101.074,0.000
1587066722.069,-94.238,-138.672,-215.820,-88.379,0.000
1587066722.073,-65.430,-317.383,-310.059,-66.406,0.000
1587066722.077,-5.371,-463.379,-275.391,-18.555,0.000
1587066722.081,-9.277,48.340,52.734,-19.531,0.000
1587066722.085,-40.527,395.508,167.969,-36.133,0.000
1587066722.089,-0.488,-23.438,-55.664,7.812,0.000
1587066722.093,61.035,45.898,31.250,47.363,0.000
1587066722.096,43.945,418.457,179.688,34.668,0.000
1587066722.100,8.789,238.281,55.176,15.625,0.000
1587066722.104,13.672,-216.797,-158.691,7.324,0.000
1587066722.108,37.109,-37.598,-54.688,19.043,0.000
1587066722.112,49.805,338.867,142.090,40.527,0.000
1587066722.116,32.227,73.730,-42.480,29.785,0.000
1587066722.120,24.414,-597.168,-443.359,26.855,0.000
1587066722.124,37.598,-686.523,-334.473,42.969,0.000
1587066722.128,53.711,-3.418,76.660,39.062,0.000
1587066722.132,50.293,214.355,29.297,28.809,0.000
1587066722.135,26.367,-203.613,-270.508,13.672,0.000
1587066722.139,23.926,-20.508,-94.238,20.020,0.000
1587066722.143,50.293,479.004,212.402,50.781,0.000
1587066722.147,56.152,340.332,89.844,46.875,0.000
1587066722.151,31.250,-115.234,-130.859,27.344,0.000
1587066722.155,16.113,69.336,14.160,20.020,0.000
1587066722.159,34.668,441.406,192.383,22.949,0.000
1587066722.163,55.176,104.980,-19.043,46.875,0.000
1587066722.167,30.273,-745.605,-433.105,43.945,0.000
1587066722.171,-17.090,-499.023,-336.914,3.906,0.000
1587066722.175,8.789,-100.586,-196.289,20.020,0.000
1587066722.178,34.668,-73.242,-119.141,33.203,0.000
1587066722.182,4.883,44.922,-14.648,8.789,0.000
1587066722.186,-9.766,7.812,3.418,3.906,0.000
1587066722.190,11.719,56.152,10.254,25.391,0.000
1587066722.194,63.477,97.168,-8.789,45.410,0.000
1587066722.198,54.688,166.992,63.477,32.715,0.000
1587066722.202,0.488,111.816,13.184,-8.301,0.000
1587066722.206,6.836,-25.879,-133.789,-7.812,0.000
1587066722.210,53.711,-232.422,-219.727,34.668,0.000
1587066722.214,39.062,-269.043,-231.934,24.902,0.000
1587066722.218,-12.695,-12.695,-40.527,-13.184,0.000
1587066722.221,-9.277,-300.781,-282.227,-7.324,0.000
1587066722.225,30.273,-411.621,-373.535,20.020,0.000
1587066722.229,26.855,28.320,11.230,12.695,0.000
1587066722.233,-11.719,86.914,22.949,-12.695,0.000
1587066722.237,-30.273,-67.871,-32.227,-24.902,0.000
1587066722.241,-6.348,13.184,36.133,-17.578,0.000
1587066722.245,17.090,353.516,137.207,-1.953,0.000
1587066722.249,-2.930,387.695,122.559,10.254,0.000
1587066722.253,-23.438,71.289,12.695,-5.859,0.000
1587066722.257,-2.930,-415.039,-242.676,-4.395,0.000
1587066722.260,13.672,-88.379,-35.156,6.836,0.000
1587066722.264,6.348,553.223,218.262,4.395,0.000
1587066722.268,-19.531,5.371,-120.117,-12.695,0.000
1587066722.272,-24.902,-688.965,-387.207,-19.531,0.000
1587066722.276,1.465,37.109,53.223,-12.695,0.000
1587066722.280,6.348,491.699,195.312,-8.301,0.000
1587066722.284,-26.855,51.270,-51.270,-15.137,0.000
1587066722.288,-34.180,-229.492,-253.906,-17.578,0.000
1587066722.292,-8.789,-71.289,-142.578,-1.465,0.000
1587066722.296,0.488,242.188,130.371,11.230,0.000
1587066722.300,-13.672,-54.199,-107.910,13.672,0.000
1587066722.303,-20.996,-497.070,-394.043,4.883,0.000
1587066722.307,-6.836,-195.312,-159.668,-0.488,0.000
1587066722.311,6.836,235.352,80.566,5.859,0.000
1587066722.315,-12.207,-419.922,-397.461,11.230,0.000
1587066722.319,-53.223,-729.004,-406.738,-24.902,0.000
1587066722.323,-51.758,-18.066,-1.953,-49.805,0.000
1587066722.327,3.418,204.590,67.871,-1.465,0.000
1587066722.331,3.418,-30.762,-90.332,-2.930,0.000
1587066722.335,-38.086,-28.809,-28.809,-41.992,0.000
1587066722.339,-48.340,146.484,99.121,-39.551,0.000
1587066722.343,-32.227,274.414,103.516,-23.438,0.000
1587066722.346,-9.277,17.090,-150.391,-7.812,0.000
1587066722.350,-40.039,-395.508,-407.227,-32.227,0.000
1587066722.354,-58.594,-479.980,-368.652,-59.082,0.000
1587066722.358,-30.762,-327.148,-291.016,-39.062,0.000
1587066722.362,-0.977,-634.277,-439.941,13.672,0.000
1587066722.366,-27.344,-222.656,-218.750,-7.324,0.000
1587066722.370,-62.012,243.164,65.918,-57.617,0.000
1587066722.374,-34.668,38.574,-14.160,-40.527,0.000
1587066722.378,-10.254,225.586,82.031,-23.438,0.000
1587066722.382,-29.297,392.578,105.957,-35.156,0.000
1587066722.385,-57.129,98.633,-86.914,-50.781,0.000
1587066722.389,-52.246,-96.680,-232.910,-45.898,0.000
1587066722.393,-26.855,150.879,54.199,-21.973,0.000
1587066722.397,-18.066,90.820,-30.273,-6.348,0.000
1587066722.401,-50.293,-237.793,-330.566,-23.438,0.000
1587066722.405,-57.617,-439.941,-389.160,-24.414,0.000
1587066722.409,-14.648,-309.570,-208.984,-2.441,0.000
1587066722.413,6.348,10.742,-5.371,-0.977,0.000
1587066722.417,-18.555,197.754,50.293,-25.391,0.000
1587066722.421,-32.715,-444.824,-355.469,-29.297,0.000
1587066722.425,-28.320,-470.703,-267.090,-29.785,0.000
1587066722.428,-19.531,495.117,230.469,-29.785,0.000
1587066722.432,-20.020,376.953,52.734,-16.602,0.000
1587066722.436,-50.293,-120.605,-142.090,-33.203,0.000
1587066722.440,-55.176,57.617,13.672,-31.250,0.000
1587066722.444,-17.578,83.496,44.434,-1.953,0.000
1587066722.448,-21.973,-132.812,-114.258,-9.766,0.000
1587066722.452,-55.664,-753.418,-461.914,-32.227,0.000
1587066722.456,-69.336,-362.793,-185.059,-56.152,0.000
1587066722.460,-40.039,479.492,221.191,-45.410,0.000
1587066722.464,-12.695,243.164,15.137,-19.531,0.000
1587066722.468,-36.621,-214.355,-234.863,-23.438,0.000
1587066722.471,-47.852,-155.762,-250.977,-37.109,0.000
1587066722.475,-12.695,198.242,1.465,-32.227,0.000
1587066722.479,2.441,187.500,28.320,-9.277,0.000
1587066722.483,-29.297,46.875,5.371,-29.297,0.000
1587066722.487,-50.781,50.781,2.441,-51.270,0.000
1587066722.491,-29.297,-6.836,-64.453,-33.203,0.000
1587066722.495,-3.418,-160.645,-83.496,0.488,0.000
1587066722.499,-23.438,-532.227,-299.316,0.977,0.000
1587066722.503,-58.594,-437.500,-303.223,-43.457,0.000
1587066722.507,-41.992,-21.484,-36.621,-48.828,0.000
1587066722.510,2.441,83.008,61.523,-9.766,0.000
1587066722.514,-6.348,172.363,57.617,-6.836,0.000
1587066722.518,-42.480,215.332,90.820,-24.902,0.000
1587066722.522,-34.180,74.219,9.766,-14.648,0.000
1587066722.526,5.859,58.105,20.020,9.277,0.000
1587066722.530,3.906,331.543,138.184,4.395,0.000
1587066722.534,-41.504,296.875,136.719,-25.879,0.000
1587066722.538,-50.781,-209.961,-159.180,-30.273,0.000
1587066722.542,-9.766,-778.809,-415.039,1.465,0.000
1587066722.546,-21.484,-70.801,36.621,-13.672,0.000
1587066722.550,-55.176,392.090,166.992,-35.645,0.000
1587066722.553,-54.199,-119.629,-152.832,-16.113,0.000
1587066722.557,-38.574,-72.266,-120.605,-4.883,0.000
1587066722.561,-25.391,346.680,152.344,-18.066,0.000
1587066722.565,-32.227,411.621,127.930,-30.273,0.000
1587066722.569,-52.246,-25.391,-98.145,-37.598,0.000
1587066722.573,-54.688,-11.719,0.000,-45.410,0.000
1587066722.577,-26.855,374.023,176.758,-33.691,0.000
1587066722.581,-25.391,322.754,56.641,-25.879,0.000
1587066722.585,-46.387,-185.059,-244.629,-37.598,0.000
1587066722.589,-38.086,-336.426,-340.820,-37.109,0.000
1587066722.593,-1.465,-77.637,-125.488,-1.953,0.000
1587066722.596,-12.207,19.531,-13.672,-5.859,0.000
1587066722.600,-48.828,-471.191,-385.742,-37.109,0.000
1587066722.604,-59.570,-577.637,-301.758,-50.293,0.000
1587066722.608,-49.805,282.227,173.340,-41.992,0.000
1587066722.612,-34.180,530.273,146.484,-21.484,0.000
1587066722.616,-35.645,119.629,-48.340,-28.809,0.000
1587066722.620,-51.270,33.691,-11.719,-47.852,0.000
1587066722.624,-39.551,195.312,78.613,-47.363,0.000
1587066722.628,-17.578,281.738,98.633,-29.297,0.000
1587066722.632,-21.973,-39.062,-144.043,-23.438,0.000
1587066722.635,-45.410,-242.676,-300.781,-41.016,0.000
1587066722.639,-45.410,48.340,-103.516,-34.180,0.000
1587066722.643,-0.977,41.016,-1.465,9.277,0.000
1587066722.647,9.277,-496.582,-336.426,22.461,0.000
1587066722.651,-54.688,-200.684,-129.395,-37.109,0.000
1587066722.655,-60.547,174.805,69.824,-56.641,0.000
1587066722.659,-14.648,117.188,19.043,-22.949,0.000
1587066722.663,-25.879,312.500,118.652,-20.508,0.000
1587066722.667,-63.477,345.703,108.887,-41.504,0.000
1587066722.671,-68.359,137.695,25.879,-43.457,0.000
1587066722.675,-37.109,12.695,-21.973,-26.367,0.000
1587066722.678,-15.137,5.859,15.137,-15.137,0.000
1587066722.682,-36.621,-137.207,-143.066,-23.438,0.000
1587066722.686,-60.059,-175.293,-266.113,-46.387,0.000
1587066722.690,-32.227,-471.680,-414.062,-23.926,0.000
1587066722.694,-8.301,-370.117,-189.453,-3.418,0.000
1587066722.698,-28.320,149.902,94.727,-12.695,0.000
1587066722.702,-51.758,-112.793,-120.117,-16.113,0.000
1587066722.706,-43.457,-244.629,-232.422,-25.879,0.000
1587066722.710,-20.508,178.711,50.293,-17.578,0.000
1587066722.714,-29.785,483.887,181.641,-22.949,0.000
1587066722.718,-58.594,98.145,-54.688,-44.434,0.000
1587066722.721,-54.199,-221.680,-150.391,-49.805,0.000
1587066722.725,-21.484,-86.426,-24.414,-27.832,0.000
1587066722.729,-5.371,101.074,64.941,-11.230,0.000
1587066722.733,-20.020,44.922,-49.805,-16.113,0.000
1587066722.737,-26.855,-751.465,-448.730,-16.602,0.000
1587066722.741,-23.438,-176.758,-50.781,-34.668,0.000
1587066722.745,3.906,536.133,194.824,-20.996,0.000
1587066722.749,-8.789,116.211,-112.793,-23.438,0.000
1587066722.753,-53.711,-85.938,-218.262,-45.898,0.000
1587066722.757,-38.574,-51.270,-249.023,-29.785,0.000
1587066722.760,-5.371,104.492,-77.637,-14.648,0.000
1587066722.764,-5.371,77.637,-73.730,-14.160,0.000
1587066722.768,-39.062,-110.840,-221.680,-35.156,0.000
1587066722.772,-42.969,-225.586,-309.570,-36.621,0.000
1587066722.776,-5.371,-102.539,-208.008,-4.883,0.000
1587066722.780,1.953,-217.285,-195.801,3.906,0.000
1587066722.784,-28.320,-729.980,-400.879,-11.230,0.000
1587066722.788,-47.363,-106.934,-69.824,-30.762,0.000
1587066722.792,-13.184,376.465,140.137,-19.531,0.000
1587066722.796,8.789,124.023,-2.441,4.883,0.000
1587066722.800,-31.250,187.988,56.152,-20.996,0.000
1587066722.803,-60.547,294.922,106.934,-43.457,0.000
1587066722.807,-26.367,247.559,75.195,-20.996,0.000
1587066722.811,0.000,230.957,62.500,-10.254,0.000
1587066722.815,-32.227,164.062,31.250,-23.438,0.000
1587066722.819,-52.734,-124.023,-190.918,-37.109,0.000
1587066722.823,-24.902,-282.227,-324.219,-33.203,0.000
1587066722.827,19.043,-553.711,-370.605,22.949,0.000
1587066722.831,1.953,42.969,-3.418,19.531,0.000
1587066722.835,-51.758,392.578,150.391,-43.457,0.000
1587066722.839,-54.199,2.441,-90.332,-55.176,0.000
1587066722.843,-26.855,161.133,-3.906,-34.668,0.000
1587066722.846,-22.461,447.754,129.395,-25.879,0.000
1587066722.850,-58.105,303.223,69.824,-49.316,0.000
1587066722.854,-52.246,-108.887,-164.062,-43.457,0.000
1587066722.858,14.160,-48.340,-107.910,-6.348,0.000
1587066722.862,2.441,226.562,115.234,-20.020,0.000
1587066722.866,-58.594,-57.617,-122.070,-51.758,0.000
1587066722.870,-71.777,-637.695,-473.633,-75.684,0.000
1587066722.874,-48.340,-687.500,-347.656,-69.336,0.000
1587066722.878,-30.762,-12.207,64.941,-54.688,0.000
1587066722.882,-44.434,94.238,14.648,-69.824,0.000
1587066722.885,-76.660,-200.195,-182.129,-80.566,0.000
1587066722.889,-76.172,23.926,-15.625,-80.078,0.000
1587066722.893,-37.109,423.340,185.547,-67.383,0.000
1587066722.897,-35.156,445.801,121.094,-63.965,0.000
1587066722.901,-72.754,-26.855,-77.148,-88.379,0.000
1587066722.905,-69.824,39.062,18.066,-89.355,0.000
1587066722.909,-34.180,383.301,166.992,-67.383,0.000
1587066722.913,0.000,9.766,-134.277,-32.715,0.000
1587066722.917,-19.531,-753.906,-469.238,-21.973,0.000
1587066722.921,-66.406,-362.793,-108.398,-54.688,0.000
1587066722.925,-55.176,316.895,176.270,-58.594,0.000
1587066722.928,-37.109,385.742,115.234,-44.434,0.000
1587066722.932,-55.176,-21.484,-160.156,-51.758,0.000
1587066722.936,-73.242,-169.922,-248.535,-66.895,0.000
1587066722.940,-59.570,153.320,0.000,-57.129,0.000
1587066722.944,-20.996,262.207,84.961,-26.855,0.000
1587066722.948,-7.324,255.859,86.914,-14.648,0.000
1587066722.952,-52.734,195.312,78.125,-47.852,0.000
1587066722.956,-68.359,131.348,55.664,-64.941,0.000
1587066722.960,-28.320,-119.629,-78.613,-41.504,0.000
1587066722.964,-31.738,-180.176,-148.438,-37.598,0.000
1587066722.968,-65.430,-17.090,-53.711,-59.570,0.000
1587066722.971,-63.477,-255.859,-293.945,-59.570,0.000
1587066722.975,-23.438,-391.113,-353.027,-35.156,0.000
1587066722.979,-13.672,42.969,34.668,-30.273,0.000
1587066722.983,-43.457,431.152,154.297,-43.945,0.000
1587066722.987,-46.387,173.340,-44.922,-41.992,0.000
1587066722.991,-23.438,-91.309,-146.973,-34.180,0.000
1587066722.995,-20.020,311.523,97.168,-32.227,0.000
1587066722.999,-43.945,522.461,149.414,-34.180,0.000
1587066723.003,-65.430,96.680,-49.316,-56.641,0.000
1587066723.007,-36.621,-413.086,-305.664,-46.875,0.000
1587066723.010,-16.602,-139.160,-125.488,-28.320,0.000
1587066723.014,-32.227,410.645,164.062,-38.574,0.000
1587066723.018,-58.105,59.570,-73.242,-61.523,0.000
1587066723.022,-55.664,-740.234,-455.566,-46.387,0.000
1587066723.026,-43.945,-48.340,-3.906,-38.574,0.000
1587066723.030,-45.410,557.617,217.773,-48.340,0.000
1587066723.034,-51.758,22.461,-140.137,-51.758,0.000
1587066723.038,-60.059,-166.992,-196.777,-59.570,0.000
1587066723.042,-33.691,198.242,63.477,-48.340,0.000
1587066723.046,-14.160,321.777,81.543,-33.203,0.000
1587066723.050,-37.109,-103.027,-190.918,-42.480,0.000
1587066723.053,-48.828,-495.117,-400.879,-40.527,0.000
1587066723.057,-32.227,-244.629,-253.906,-34.668,0.000
1587066723.061,-26.855,294.434,83.008,-50.781,0.000
1587066723.065,-39.551,-269.043,-234.375,-40.039,0.000
1587066723.069,-56.641,-780.273,-449.219,-41.016,0.000
1587066723.073,-59.082,-29.785,-82.520,-67.871,0.000
1587066723.077,-31.250,328.125,87.891,-47.363,0.000
1587066723.081,-30.273,57.617,-76.172,-37.109,0.000
1587066723.085,-67.383,62.012,-23.438,-63.965,0.000
1587066723.089,-75.195,237.305,84.473,-62.500,0.000
1587066723.093,-33.691,384.766,144.043,-32.715,0.000
1587066723.096,-14.160,221.191,70.801,-26.855,0.000
1587066723.100,-45.898,-229.980,-197.266,-43.457,0.000
1587066723.104,-62.500,-312.988,-290.039,-54.199,0.000
1587066723.108,-11.719,-210.938,-252.441,-17.090,0.000
1587066723.112,15.625,-691.406,-402.832,11.230,0.000
1587066723.116,-48.340,-184.570,-59.082,-42.480,0.000
1587066723.120,-71.777,192.383,65.918,-66.895,0.000
1587066723.124,-31.250,-68.848,-62.012,-42.969,0.000
1587066723.128,-10.742,175.781,102.051,-24.414,0.000
1587066723.132,-31.250,366.211,121.094,-23.926,0.000
1587066723.135,-46.387,109.375,13.672,-34.180,0.000
1587066723.139,-29.297,-126.953,-96.680,-29.297,0.000
1587066723.143,-6.348,5.371,5.371,-14.648,0.000
1587066723.147,-7.324,1.465,-16.602,-24.414,0.000
1587066723.151,-48.828,-257.324,-290.527,-58.105,0.000
1587066723.155,-50.781,-617.188,-449.707,-51.758,0.000
1587066723.159,-16.602,-513.672,-189.453,-25.879,0.000
1587066723.163,-18.555,282.715,163.574,-38.086,0.000
1587066723.167,-38.086,50.293,-93.750,-49.316,0.000
1587066723.171,-47.852,-393.555,-335.938,-57.129,0.000
1587066723.175,-20.996,109.863,29.297,-37.598,0.000
1587066723.178,7.324,535.156,218.750,-2.441,0.000
1587066723.182,-31.738,275.879,42.480,-27.344,0.000
1587066723.186,-77.637,-238.770,-167.480,-57.617,0.000
1587066723.190,-66.406,-17.090,-9.766,-49.316,0.000
1587066723.194,-15.137,191.895,105.957,-13.184,0.000
1587066723.198,-9.277,-123.047,-119.141,-5.371,0.000
1587066723.202,-44.922,-762.207,-461.426,-20.996,0.000
1587066723.206,-65.918,-345.215,-166.992,-52.246,0.000
1587066723.210,-43.457,398.438,196.777,-50.781,0.000
1587066723.214,-28.320,301.758,48.340,-34.668,0.000
1587066723.218,-51.758,18.066,-62.500,-57.617,0.000
1587066723.221,-43.945,101.074,40.039,-48.340,0.000
1587066723.225,-20.996,145.020,87.402,-18.555,0.000
1587066723.229,-18.555,95.215,50.293,-20.996,0.000
1587066723.233,-51.758,162.109,79.590,-45.898,0.000
1587066723.237,-62.012,42.480,-6.836,-47.363,0.000
1587066723.241,-28.320,-92.773,-156.250,-23.438,0.000
1587066723.245,-3.418,-223.145,-198.242,-4.395,0.000
1587066723.249,-31.250,-490.723,-285.156,-21.484,0.000
1587066723.253,-64.453,-288.086,-268.066,-59.570,0.000
1587066723.257,-45.898,75.195,-62.012,-48.340,0.000
1587066723.260,-15.625,67.871,-3.906,-8.789,0.000
1587066723.264,-15.137,255.371,81.543,-17.578,0.000
1587066723.268,-39.062,284.668,90.332,-39.551,0.000
1587066723.272,-36.621,-1.465,-21.973,-41.016,0.000
1587066723.276,-5.859,55.176,39.062,-15.625,0.000
1587066723.280,-16.113,325.195,101.562,-13.672,0.000
1587066723.284,-47.363,-1.465,-152.344,-33.203,0.000
1587066723.288,-46.875,-412.598,-362.793,-22.949,0.000
1587066723.292,-17.578,-525.391,-313.477,8.301,0.000
1587066723.296,-22.461,40.039,24.414,-3.418,0.000
1587066723.300,-42.480,195.801,39.551,-30.273,0.000
1587066723.303,-48.340,-315.430,-252.930,-41.016,0.000
1587066723.307,-31.250,-621.582,-345.215,-31.738,0.000
1587066723.311,-18.066,105.957,42.480,-29.785,0.000
1587066723.315,-23.438,286.133,88.379,-28.320,0.000
1587066723.319,-49.805,-269.531,-194.336,-35.645,0.000
1587066723.323,-28.809,-241.211,-221.680,-28.320,0.000
1587066723.327,3.906,173.340,62.988,-7.812,0.000
1587066723.331,-19.043,366.699,138.184,-10.742,0.000
1587066723.335,-48.340,-249.512,-214.844,-28.320,0.000
1587066723.339,-57.617,-546.875,-291.504,-49.316,0.000
1587066723.343,-34.668,-18.066,18.555,-31.738,0.000
1587066723.346,-21.484,75.684,-5.859,-20.020,0.000
1587066723.350,-53.223,-362.793,-349.609,-37.109,0.000
1587066723.354,-65.430,-367.188,-302.246,-50.293,0.000
1587066723.358,-36.621,180.176,61.523,-43.945,0.000
1587066723.362,-13.184,398.926,140.625,-23.926,0.000
1587066723.366,-34.668,47.363,-53.223,-27.832,0.000
1587066723.370,-70.801,-66.895,-31.738,-54.688,0.000
1587066723.374,-44.434,195.312,93.262,-39.062,0.000
1587066723.378,-2.441,253.906,67.871,-6.836,0.000
1587066723.382,-15.137,-208.496,-225.586,-13.672,0.000
1587066723.385,-54.199,-368.164,-328.613,-44.434,0.000
1587066723.389,-42.969,13.184,-157.715,-62.500,0.000
1587066723.393,3.418,110.352,-3.906,-29.297,0.000
1587066723.397,4.395,-452.637,-281.738,0.000,0.000
1587066723.401,-39.062,-419.434,-382.324,-32.715,0.000
1587066723.405,-41.992,-72.266,-223.145,-50.293,0.000
1587066723.409,-8.301,109.863,13.672,-15.625,0.000
1587066723.413,-11.719,318.848,152.344,-3.906,0.000
1587066723.417,-44.434,161.621,-3.418,-34.668,0.000
1587066723.421,-54.199,-17.578,-69.824,-43.945,0.000
1587066723.425,-29.297,-20.996,-40.527,-27.832,0.000
1587066723.428,-5.371,-28.320,7.324,-8.789,0.000
1587066723.432,-29.785,-46.875,-50.293,-19.531,0.000
1587066723.436,-62.500,-134.766,-210.449,-41.992,0.000
1587066723.440,-38.086,-480.469,-387.207,-14.648,0.000
1587066723.444,-17.578,-374.023,-164.551,6.836,0.000
1587066723.448,-42.480,281.250,155.273,-29.785,0.000
1587066723.452,-63.965,104.004,3.418,-51.270,0.000
1587066723.456,-44.922,-354.004,-288.086,-31.738,0.000
1587066723.460,-14.648,-127.441,-121.094,-7.324,0.000
1587066723.464,-21.484,333.496,155.273,-4.395,0.000
1587066723.468,-49.316,100.098,-3.906,-24.414,0.000
1587066723.471,-66.895,-302.246,-212.402,-39.551,0.000
1587066723.475,-46.875,-263.672,-248.047,-30.762,0.000
1587066723.479,-18.066,2.930,-106.934,-11.719,0.000
1587066723.483,-28.320,-20.996,-75.684,-19.531,0.000
1587066723.487,-33.691,-780.273,-480.469,-14.648,0.000
1587066723.491,-37.598,-276.367,-133.301,-31.250,0.000
1587066723.495,-24.414,472.656,222.168,-22.461,0.000
1587066723.499,-34.180,105.469,-92.773,-7.812,0.000
1587066723.503,-68.359,-195.801,-216.309,-43.945,0.000
1587066723.507,-46.387,104.980,42.480,-53.223,0.000
1587066723.510,-23.438,452.148,179.199,-32.227,0.000
1587066723.514,-37.109,175.781,-26.855,-26.855,0.000
1587066723.518,-59.082,-281.250,-237.305,-46.387,0.000
1587066723.522,-48.340,-418.457,-353.516,-46.875,0.000
1587066723.526,-15.625,-162.598,-170.410,-14.160,0.000
1587066723.530,-7.812,-240.723,-122.070,5.371,0.000
1587066723.534,-45.898,-692.871,-303.711,-37.109,0.000
1587066723.538,-72.754,-112.793,14.160,-77.148,0.000
1587066723.542,-29.297,283.691,151.367,-49.805,0.000
1587066723.546,-7.812,134.766,36.133,-26.367,0.000
1587066723.550,-50.293,173.340,55.664,-53.711,0.000
1587066723.553,-69.824,105.469,44.434,-75.684,0.000
1587066723.557,-41.992,37.598,45.898,-56.152,0.000
1587066723.561,-16.113,99.121,64.453,-32.227,0.000
1587066723.565,-40.527,267.090,104.492,-44.434,0.000
1587066723.569,-70.801,-83.008,-139.160,-60.059,0.000
1587066723.573,-46.387,-437.988,-343.262,-39.062,0.000
1587066723.577,-6.836,-534.668,-325.195,-2.441,0.000
1587066723.581,-25.879,65.430,25.391,-34.668,0.000
1587066723.585,-59.082,414.062,158.203,-62.988,0.000
1587066723.589,-51.270,27.344,-89.844,-50.781,0.000
1587066723.593,-12.695,60.547,-61.523,-35.156,0.000
1587066723.596,-1.953,315.918,97.168,-20.020,0.000
1587066723.600,-51.270,141.113,21.973,-44.434,0.000
1587066723.604,-66.406,-202.637,-175.781,-64.941,0.000
1587066723.608,-34.180,-53.223,-91.797,-53.223,0.000
1587066723.612,-22.461,260.254,109.863,-37.109,0.000
1587066723.616,-30.762,0.488,-94.727,-29.785,0.000
1587066723.620,-31.738,-551.270,-424.805,-26.367,0.000
1587066723.624,-31.250,-587.402,-237.793,-26.367,0.000
1587066723.628,-35.645,18.555,94.238,-51.270,0.000
1587066723.632,-53.711,141.113,19.531,-63.965,0.000
1587066723.635,-74.707,-305.176,-319.824,-69.336,0.000
1587066723.639,-67.383,-165.039,-213.379,-69.824,0.000
1587066723.643,-36.133,490.234,199.707,-43.457,0.000
1587066723.647,-36.133,468.750,125.488,-34.180,0.000
1587066723.651,-62.988,-152.344,-203.125,-59.082,0.000
1587066723.655,-67.871,-130.371,-208.984,-68.359,0.000
1587066723.659,-29.297,383.789,132.324,-34.668,0.000
1587066723.663,2.441,174.805,25.879,-13.184,0.000
1587066723.667,-29.297,-765.137,-476.074,-28.320,0.000
1587066723.671,-71.289,-468.750,-313.477,-68.359,0.000
1587066723.675,-46.875,333.008,119.141,-55.664,0.000
1587066723.678,-18.066,357.422,134.766,-22.949,0.000
1587066723.682,-36.133,146.484,83.984,-32.227,0.000
1587066723.686,-55.664,60.547,26.367,-57.129,0.000
1587066723.690,-39.062,27.344,4.883,-50.781,0.000
1587066723.694,-7.812,-27.832,35.156,-22.461,0.000
1587066723.698,-27.344,224.121,124.023,-33.203,0.000
1587066723.702,-68.359,223.145,68.848,-62.500,0.000
1587066723.706,-62.500,92.773,39.551,-62.500,0.000
1587066723.710,-21.973,-104.492,-66.895,-26.367,0.000
1587066723.714,-17.578,-140.625,-162.598,-17.578,0.000
1587066723.718,-57.129,45.410,-7.812,-50.293,0.000
1587066723.721,-70.312,-232.910,-247.559,-61.523,0.000
1587066723.725,-33.691,-509.277,-408.691,-39.551,0.000
1587066723.729,-20.508,-170.898,-61.523,-23.926,0.000
1587066723.733,-60.547,237.305,99.121,-44.434,0.000
1587066723.737,-69.824,18.066,-21.484,-52.734,0.000
1587066723.741,-48.340,3.906,19.531,-44.434,0.000
1587066723.745,-29.297,391.602,160.645,-39.551,0.000
1587066723.749,-41.992,358.887,131.348,-58.105,0.000
1587066723.753,-62.988,-165.039,-150.391,-63.965,0.000
1587066723.757,-46.387,-437.012,-300.293,-44.922,0.000
1587066723.760,-14.648,-62.988,-73.242,-24.414,0.000
1587066723.764,-34.180,402.832,145.508,-34.180,0.000
1587066723.768,-62.500,-108.887,-153.320,-55.664,0.000
1587066723.772,-54.688,-720.703,-384.766,-51.270,0.000
1587066723.776,-34.668,-22.949,44.434,-50.293,0.000
1587066723.780,-24.414,398.438,155.762,-33.203,0.000
1587066723.784,-52.734,-61.523,-159.668,-38.574,0.000
1587066723.788,-69.336,-178.711,-196.289,-62.500,0.000
1587066723.792,-41.992,228.027,83.984,-52.734,0.000
1587066723.796,-31.738,440.918,159.668,-32.715,0.000
1587066723.800,-54.688,66.895,-76.660,-25.391,0.000
1587066723.803,-72.266,-316.895,-307.129,-52.734,0.000
1587066723.807,-35.156,-148.438,-166.504,-47.363,0.000
1587066723.811,16.113,140.137,54.199,7.324,0.000
1587066723.815,-11.719,-285.645,-187.012,4.883,0.000
1587066723.819,-66.406,-616.699,-337.402,-47.363,0.000
1587066723.823,-61.035,-18.066,-69.336,-55.664,0.000
1587066723.827,-27.344,349.121,138.184,-21.973,0.000
1587066723.831,-32.715,129.395,-31.250,-14.648,0.000
1587066723.835,-59.570,73.730,-24.414,-52.734,0.000
1587066723.839,-61.035,196.777,55.664,-61.523,0.000
1587066723.843,-38.574,213.867,65.430,-35.645,0.000
1587066723.846,-23.926,94.727,7.324,-18.555,0.000
1587066723.850,-44.434,-144.043,-212.891,-31.250,0.000
1587066723.854,-62.500,-386.719,-382.324,-44.922,0.000
1587066723.858,-39.062,-305.176,-283.203,-25.879,0.000
1587066723.862,-17.090,-516.113,-366.211,1.465,0.000
1587066723.866,-62.988,-285.156,-238.281,-39.062,0.000
1587066723.870,-91.309,9.766,-139.648,-75.195,0.000
1587066723.874,-53.711,62.012,-55.664,-45.410,0.000
1587066723.878,-20.996,319.336,150.391,-12.695,0.000
1587066723.882,-34.180,325.684,72.266,-21.973,0.000
1587066723.885,-60.547,6.836,-185.059,-48.340,0.000
1587066723.889,-51.270,-194.336,-294.922,-40.039,0.000
1587066723.893,-19.531,102.051,40.039,-17.578,0.000
1587066723.897,-13.672,196.777,67.871,-11.719,0.000
1587066723.901,-41.992,-183.105,-282.227,-31.738,0.000
1587066723.905,-51.758,-605.957,-478.027,-35.156,0.000
1587066723.909,-10.254,-619.141,-273.438,-10.742,0.000
1587066723.913,-17.090,281.738,144.531,-26.855,0.000
1587066723.917,-56.641,355.469,65.430,-47.852,0.000
1587066723.921,-57.129,-190.918,-302.734,-50.293,0.000
1587066723.925,-30.762,-35.156,-158.691,-33.203,0.000
1587066723.928,-15.137,394.043,185.547,-9.766,0.000
1587066723.932,-34.180,358.887,93.262,-15.137,0.000
1587066723.936,-51.758,-189.941,-226.562,-37.109,0.000
1587066723.940,-37.109,-93.262,-153.320,-41.016,0.000
1587066723.944,-12.207,108.887,58.105,-21.973,0.000
1587066723.948,-28.320,-130.371,-141.602,-22.949,0.000
1587066723.952,-51.758,-802.734,-543.457,-31.738,0.000
1587066723.956,-68.848,-361.816,-213.867,-54.199,0.000
1587066723.960,-44.434,480.469,208.496,-48.828,0.000
1587066723.964,-11.230,332.520,33.203,-18.066,0.000
1587066723.968,-41.016,-32.227,-168.457,-35.156,0.000
1587066723.971,-59.082,-36.133,-153.320,-56.152,0.000
1587066723.975,-26.855,311.035,93.750,-31.738,0.000
1587066723.979,-13.672,328.125,49.805,-15.625,0.000
1587066723.983,-42.969,-122.559,-216.309,-30.273,0.000
1587066723.987,-61.035,-264.160,-274.902,-49.805,0.000
1587066723.991,-50.781,-19.043,-130.859,-44.922,0.000
1587066723.995,-26.367,-121.094,-93.750,-18.066,0.000
1587066723.999,-33.203,-612.793,-285.156,-15.137,0.000
1587066724.003,-62.500,-506.836,-295.898,-43.945,0.000
1587066724.007,-58.105,-100.098,-120.117,-47.363,0.000
1587066724.010,-30.273,67.871,16.602,-29.297,0.000
1587066724.014,-40.039,283.203,109.863,-22.949,0.000
1587066724.018,-70.312,262.207,82.031,-43.945,0.000
1587066724.022,-54.199,23.926,-35.156,-50.293,0.000
1587066724.026,-22.949,29.785,20.508,-27.344,0.000
1587066724.030,-32.227,316.895,145.996,-34.180,0.000
1587066724.034,-65.918,211.426,61.035,-55.664,0.000
1587066724.038,-56.152,-291.504,-266.602,-42.480,0.000
1587066724.042,-26.367,-412.109,-201.660,-22.949,0.000
1587066724.046,-23.438,78.613,97.168,-24.414,0.000
1587066724.050,-45.898,277.344,117.676,-36.133,0.000
1587066724.053,-59.570,-115.234,-137.207,-38.574,0.000
1587066724.057,-31.738,-808.594,-457.520,-15.625,0.000
1587066724.061,-30.273,-145.996,25.879,-32.715,0.000
1587066724.065,-57.617,438.965,182.129,-52.734,0.000
1587066724.069,-73.730,-77.148,-160.645,-49.316,0.000
1587066724.073,-55.176,-89.355,-87.402,-49.316,0.000
1587066724.077,-33.203,369.629,188.477,-40.039,0.000
1587066724.081,-23.926,327.148,74.707,-17.090,0.000
1587066724.085,-35.156,-371.582,-297.852,-27.344,0.000
1587066724.089,-50.293,-511.230,-261.230,-42.969,0.000
1587066724.093,-28.809,125.488,128.418,-22.461,0.000
1587066724.096,-13.672,42.480,-26.367,-4.395,0.000
1587066724.100,-33.691,-489.746,-368.164,-10.254,0.000
1587066724.104,-37.109,-354.004,-170.410,-20.996,0.000
1587066724.108,-18.555,249.512,158.203,-17.090,0.000
1587066724.112,-2.930,346.680,118.164,-0.488,0.000
1587066724.116,-23.926,-181.152,-250.977,-16.113,0.000
1587066724.120,-52.246,-243.164,-274.902,-41.504,0.000
1587066724.124,-38.574,147.949,40.039,-33.691,0.000
1587066724.128,-7.812,190.918,90.820,-12.207,0.000
1587066724.132,-11.230,-347.656,-238.770,-5.859,0.000
1587066724.135,-42.480,-443.359,-311.523,-32.227,0.000
1587066724.139,-42.969,99.609,-1.953,-45.410,0.000
1587066724.143,0.977,122.070,50.293,-1.953,0.000
1587066724.147,19.531,-459.473,-287.598,30.762,0.000
1587066724.151,-31.250,-130.859,-42.969,-12.695,0.000
1587066724.155,-33.203,60.059,-7.324,-34.668,0.000
1587066724.159,-0.977,-140.625,-89.355,-18.555,0.000
1587066724.163,-10.742,44.434,97.656,-18.066,0.000
1587066724.167,-50.293,164.551,77.148,-37.109,0.000
1587066724.171,-59.570,11.719,9.277,-49.805,0.000
1587066724.175,-19.043,-107.422,33.691,-22.461,0.000
1587066724.178,0.977,-112.793,25.391,2.930,0.000
1587066724.182,-19.043,-63.477,18.555,-17.578,0.000
1587066724.186,-41.504,-60.059,-46.875,-37.598,0.000
1587066724.190,-17.090,-508.301,-379.395,-20.020,0.000
1587066724.194,12.695,-447.754,-206.055,-5.859,0.000
1587066724.198,-6.836,293.945,177.246,-19.043,0.000
1587066724.202,-40.527,154.297,31.250,-39.062,0.000
1587066724.206,-28.809,-254.395,-239.746,-29.785,0.000
1587066724.210,-14.160,190.430,52.734,-21.484,0.000
1587066724.214,-35.645,360.352,105.469,-39.062,0.000
1587066724.218,-58.105,-157.227,-204.590,-49.805,0.000
1587066724.221,-49.805,-379.395,-276.367,-41.016,0.000
1587066724.225,-7.812,-209.961,-163.574,-7.324,0.000
1587066724.229,-9.277,140.137,83.984,-6.836,0.000
1587066724.233,-40.527,33.691,14.160,-32.715,0.000
1587066724.237,-38.574,-784.668,-440.918,-23.926,0.000
1587066724.241,-29.297,-228.027,-60.059,-34.180,0.000
1587066724.245,-14.160,524.902,241.699,-32.227,0.000
1587066724.249,-30.762,196.777,4.883,-35.156,0.000
1587066724.253,-56.152,-135.254,-129.883,-55.664,0.000
1587066724.257,-49.805,81.543,49.805,-54.688,0.000
1587066724.260,-23.438,397.949,168.457,-22.461,0.000
1587066724.264,-25.391,229.980,24.414,-22.949,0.000
1587066724.268,-58.594,-73.242,-19.531,-51.270,0.000
1587066724.272,-38.086,-339.844,-266.113,-41.992,0.000
1587066724.276,-3.906,-105.469,-82.520,-23.926,0.000
1587066724.280,-8.301,-211.914,-79.102,-4.395,0.000
1587066724.284,-46.875,-768.066,-374.023,-20.508,0.000
1587066724.288,-67.871,-159.668,-38.574,-50.781,0.000
1587066724.292,-13.672,302.246,128.418,-14.160,0.000
1587066724.296,21.973,65.918,-1.465,18.066,0.000
1587066724.300,-31.250,107.422,49.316,-26.855,0.000
1587066724.303,-69.336,163.086,68.359,-58.594,0.000
1587066724.307,-36.133,79.590,39.062,-40.039,0.000
1587066724.311,-10.254,2.930,7.324,-22.461,0.000
1587066724.315,-40.527,51.758,10.254,-28.809,0.000
1587066724.319,-69.824,-271.973,-254.883,-53.711,0.000
1587066724.323,-57.129,-438.965,-356.934,-53.711,0.000
1587066724.327,-22.461,-537.109,-320.312,-15.625,0.000
1587066724.331,-44.922,-79.590,-20.020,-29.785,0.000
1587066724.335,-83.496,33.203,29.297,-67.383,0.000
1587066724.339,-80.566,-153.809,-40.039,-66.895,0.000
1587066724.343,-43.457,259.766,173.828,-44.434,0.000
1587066724.346,-26.367,486.328,158.691,-38.086,0.000
1587066724.350,-55.176,212.402,24.902,-52.246,0.000
1587066724.354,-57.617,-115.723,-79.590,-46.875,0.000
1587066724.358,-30.762,98.145,68.848,-23.926,0.000
1587066724.362,-15.625,407.715,177.734,-13.672,0.000
1587066724.366,-37.109,131.348,-22.949,-26.367,0.000
1587066724.370,-53.223,-487.793,-359.863,-35.156,0.000
