timestamps,TP9,AF7,AF8,TP10,Right AUX
1587072115.603,-189.941,-38.086,-502.930,-21.973,0.000
1587072115.607,-388.672,-38.574,-533.203,-17.090,0.000
1587072115.611,70.312,-42.480,-452.148,-56.641,0.000
1587072115.615,357.910,-38.086,-321.777,-76.172,0.000
1587072115.619,-44.922,-40.039,-439.941,-20.508,0.000
1587072115.623,-413.574,-46.387,-574.219,-1.465,0.000
1587072115.627,-79.590,-46.387,-658.203,-32.715,0.000
1587072115.630,367.676,-39.551,-505.371,-40.039,0.000
1587072115.634,127.441,-35.645,-361.328,-25.391,0.000
1587072115.638,-360.352,-46.387,-571.289,11.719,0.000
1587072115.642,-215.332,-46.875,-530.762,-4.395,0.000
1587072115.646,288.574,-37.598,-316.895,-54.199,0.000
1587072115.650,231.445,-41.016,-311.035,-55.664,0.000
1587072115.654,-291.504,-50.293,-533.203,-3.418,0.000
1587072115.658,-337.891,-49.805,-598.145,4.395,0.000
1587072115.662,180.664,-41.992,-377.930,-52.734,0.000
1587072115.666,330.566,-39.551,-317.871,-61.523,0.000
1587072115.670,-158.691,-48.828,-610.352,-8.301,0.000
1587072115.673,-418.457,-56.152,-733.398,1.953,0.000
1587072115.677,23.438,-40.527,-419.922,-48.828,0.000
1587072115.681,369.141,-29.297,-272.949,-48.340,0.000
1587072115.685,2.930,-43.945,-490.234,-14.160,0.000
1587072115.689,-418.945,-51.270,-624.023,-20.508,0.000
1587072115.693,-127.441,-43.457,-467.285,-48.340,0.000
1587072115.697,344.727,-45.898,-415.527,-72.754,0.000
1587072115.701,140.625,-49.316,-466.309,-42.480,0.000
1587072115.705,-367.188,-52.246,-535.645,-0.488,0.000
1587072115.709,-272.461,-52.246,-466.309,-30.762,0.000
1587072115.712,257.324,-45.898,-328.613,-63.965,0.000
1587072115.716,262.695,-48.340,-429.199,-52.246,0.000
1587072115.720,-272.949,-56.641,-559.082,-20.020,0.000
1587072115.724,-378.906,-52.734,-495.117,-16.602,0.000
1587072115.728,129.395,-49.316,-393.066,-45.410,0.000
1587072115.732,331.543,-53.711,-429.688,-58.105,0.000
1587072115.736,-122.559,-53.711,-479.004,-53.223,0.000
1587072115.740,-413.574,-52.246,-497.559,-26.855,0.000
1587072115.744,-18.555,-49.805,-478.027,-41.504,0.000
1587072115.748,354.004,-45.898,-384.766,-86.426,0.000
1587072115.752,25.879,-43.457,-393.555,-66.406,0.000
1587072115.755,-411.133,-47.852,-542.480,-31.738,0.000
1587072115.759,-167.480,-48.340,-577.637,-51.758,0.000
1587072115.763,305.664,-41.016,-484.375,-75.195,0.000
1587072115.767,161.621,-42.969,-410.645,-49.805,0.000
1587072115.771,-348.633,-43.457,-456.543,-24.414,0.000
1587072115.775,-293.457,-44.922,-629.395,-36.621,0.000
1587072115.779,232.910,-44.434,-572.266,-68.359,0.000
1587072115.783,297.852,-34.180,-337.402,-60.059,0.000
1587072115.787,-203.125,-38.086,-533.691,-16.602,0.000
1587072115.791,-378.906,-49.316,-613.281,-17.578,0.000
1587072115.795,97.656,-45.410,-431.152,-62.500,0.000
1587072115.798,355.957,-33.691,-310.547,-70.312,0.000
1587072115.802,-70.801,-37.109,-415.527,-8.301,0.000
1587072115.806,-404.297,-41.992,-575.195,-16.113,0.000
1587072115.810,-35.156,-41.504,-513.672,-80.566,0.000
1587072115.814,354.980,-40.527,-388.184,-91.309,0.000
1587072115.818,59.570,-39.551,-413.574,-52.246,0.000
1587072115.822,-399.902,-50.781,-674.805,-13.672,0.000
1587072115.826,-196.777,-43.945,-597.656,-28.320,0.000
1587072115.830,309.082,-27.344,-272.949,-61.035,0.000
1587072115.834,202.148,-32.715,-359.863,-52.246,0.000
1587072115.837,-318.848,-41.016,-520.020,-19.531,0.000
1587072115.841,-319.336,-40.039,-481.445,-31.738,0.000
1587072115.845,193.359,-34.668,-321.777,-66.895,0.000
1587072115.849,304.199,-33.203,-365.234,-64.941,0.000
1587072115.853,-188.965,-36.621,-563.965,-28.809,0.000
1587072115.857,-404.297,-42.480,-620.605,-15.625,0.000
1587072115.861,60.547,-35.645,-411.133,-54.199,0.000
1587072115.865,359.863,-31.250,-415.039,-68.848,0.000
1587072115.869,-53.711,-40.039,-635.742,-23.926,0.000
1587072115.873,-434.082,-40.039,-540.039,-11.719,0.000
1587072115.877,-103.027,-40.039,-493.652,-44.922,0.000
1587072115.880,330.566,-40.039,-400.391,-78.125,0.000
1587072115.884,95.215,-38.574,-408.203,-46.387,0.000
1587072115.888,-386.719,-37.109,-479.492,-11.719,0.000
1587072115.892,-249.023,-40.039,-479.492,-53.711,0.000
1587072115.896,261.230,-42.480,-388.672,-76.660,0.000
1587072115.900,203.125,-43.457,-383.789,-55.176,0.000
1587072115.904,-318.359,-47.852,-591.309,-13.672,0.000
1587072115.908,-368.164,-44.434,-562.988,-16.602,0.000
1587072115.912,144.043,-44.434,-562.012,-54.199,0.000
1587072115.916,307.129,-44.922,-496.094,-51.758,0.000
1587072115.920,-161.621,-39.551,-401.367,-16.113,0.000
1587072115.923,-429.199,-44.434,-567.871,-1.465,0.000
1587072115.927,-0.488,-46.387,-467.773,-43.457,0.000
1587072115.931,337.402,-44.922,-356.445,-77.148,0.000
1587072115.935,-26.855,-47.363,-457.520,-40.039,0.000
1587072115.939,-435.059,-51.758,-570.312,-8.301,0.000
1587072115.943,-149.414,-49.316,-518.066,-32.227,0.000
1587072115.947,322.754,-44.434,-361.816,-57.617,0.000
1587072115.951,130.859,-48.340,-449.219,-28.320,0.000
1587072115.955,-363.770,-54.199,-683.105,14.648,0.000
1587072115.959,-276.855,-56.641,-684.570,-12.207,0.000
1587072115.962,242.188,-42.480,-356.445,-49.316,0.000
1587072115.966,257.324,-35.156,-331.055,-36.621,0.000
1587072115.970,-258.301,-48.828,-544.922,-18.555,0.000
1587072115.974,-364.258,-54.199,-628.906,-16.113,0.000
1587072115.978,131.836,-41.016,-403.809,-45.410,0.000
1587072115.982,337.891,-31.738,-306.152,-62.500,0.000
1587072115.986,-117.676,-41.016,-465.332,-22.461,0.000
1587072115.990,-418.457,-48.340,-553.711,-3.418,0.000
1587072115.994,-27.832,-48.828,-491.211,-49.805,0.000
1587072115.998,346.680,-41.016,-358.398,-73.242,0.000
1587072116.002,25.879,-43.457,-594.238,-32.715,0.000
1587072116.005,-403.320,-44.922,-708.008,-4.395,0.000
1587072116.009,-160.156,-35.645,-428.711,-27.344,0.000
1587072116.013,309.570,-35.645,-354.004,-70.801,0.000
1587072116.017,163.574,-36.621,-406.250,-59.570,0.000
1587072116.021,-352.539,-40.527,-484.863,-23.926,0.000
1587072116.025,-308.105,-41.504,-467.773,-26.367,0.000
1587072116.029,228.516,-38.574,-387.207,-56.641,0.000
1587072116.033,273.438,-36.621,-376.953,-58.594,0.000
1587072116.037,-234.863,-39.062,-455.078,-7.812,0.000
1587072116.041,-382.324,-46.387,-536.621,5.371,0.000
1587072116.045,81.543,-45.898,-554.199,-25.879,0.000
1587072116.048,341.797,-41.016,-515.625,-31.250,0.000
1587072116.052,-90.332,-39.551,-484.863,-6.348,0.000
1587072116.056,-418.457,-42.480,-543.945,6.348,0.000
1587072116.060,-55.664,-42.969,-479.980,-24.902,0.000
1587072116.064,325.195,-40.527,-382.324,-55.176,0.000
1587072116.068,54.688,-39.551,-441.895,-29.297,0.000
1587072116.072,-402.344,-43.945,-551.758,6.836,0.000
1587072116.076,-206.543,-46.387,-477.051,-21.484,0.000
1587072116.080,301.758,-41.504,-347.656,-53.711,0.000
1587072116.084,208.496,-36.133,-344.238,-29.785,0.000
1587072116.087,-313.965,-39.062,-541.504,5.371,0.000
1587072116.091,-313.477,-45.410,-637.207,5.371,0.000
1587072116.095,205.078,-40.039,-425.293,-45.410,0.000
1587072116.099,312.012,-34.180,-295.898,-42.969,0.000
1587072116.103,-178.711,-41.992,-472.168,7.812,0.000
1587072116.107,-395.508,-50.781,-648.438,2.441,0.000
1587072116.111,46.387,-42.480,-486.328,-29.785,0.000
1587072116.115,341.309,-34.180,-296.387,-40.527,0.000
1587072116.119,-29.297,-39.551,-442.383,-9.766,0.000
1587072116.123,-406.738,-41.992,-571.289,0.977,0.000
1587072116.127,-103.516,-38.574,-449.219,-36.621,0.000
1587072116.130,357.910,-26.367,-293.457,-61.523,0.000
1587072116.134,131.836,-24.414,-426.758,-31.250,0.000
1587072116.138,-364.258,-39.062,-672.363,8.301,0.000
1587072116.142,-226.562,-35.645,-555.664,-12.695,0.000
1587072116.146,287.598,-26.855,-313.477,-61.523,0.000
1587072116.150,249.512,-32.227,-477.051,-45.898,0.000
1587072116.154,-276.855,-38.086,-697.754,15.625,0.000
1587072116.158,-349.609,-29.297,-492.676,0.488,0.000
1587072116.162,157.715,-24.902,-387.695,-57.617,0.000
1587072116.166,317.383,-31.250,-394.043,-57.129,0.000
1587072116.170,-158.691,-36.621,-489.746,-10.254,0.000
1587072116.173,-409.180,-39.062,-512.207,2.930,0.000
1587072116.177,15.137,-41.016,-389.648,-36.133,0.000
1587072116.181,354.004,-39.062,-375.977,-56.641,0.000
1587072116.185,2.930,-41.016,-524.902,-13.672,0.000
1587072116.189,-414.062,-49.805,-591.309,14.160,0.000
1587072116.193,-126.953,-46.875,-439.941,-23.926,0.000
1587072116.197,347.656,-45.898,-540.527,-37.598,0.000
1587072116.201,151.855,-45.898,-568.359,-13.672,0.000
1587072116.205,-367.676,-41.992,-516.113,-9.766,0.000
1587072116.209,-282.715,-46.875,-594.727,-32.715,0.000
1587072116.212,247.559,-44.922,-406.250,-63.477,0.000
1587072116.216,259.277,-43.457,-322.266,-58.594,0.000
1587072116.220,-261.719,-47.852,-443.848,-19.043,0.000
1587072116.224,-373.047,-51.758,-571.777,-8.301,0.000
1587072116.228,125.488,-51.270,-512.207,-40.527,0.000
1587072116.232,323.730,-45.898,-406.250,-50.293,0.000
1587072116.236,-135.742,-45.410,-470.215,-22.949,0.000
1587072116.240,-427.246,-48.340,-652.344,-13.184,0.000
1587072116.244,-31.250,-50.293,-625.977,-39.062,0.000
1587072116.248,350.098,-37.598,-322.266,-55.664,0.000
1587072116.252,42.480,-35.645,-363.770,-33.691,0.000
1587072116.255,-409.180,-48.828,-574.707,3.418,0.000
1587072116.259,-174.805,-41.504,-501.953,-14.648,0.000
1587072116.263,316.895,-30.762,-298.340,-67.383,0.000
1587072116.267,168.457,-33.203,-364.258,-33.691,0.000
1587072116.271,-340.820,-43.945,-540.527,0.977,0.000
1587072116.275,-296.387,-43.945,-504.395,-24.414,0.000
1587072116.279,222.168,-35.156,-412.598,-57.129,0.000
1587072116.283,294.922,-34.668,-395.020,-56.641,0.000
1587072116.287,-206.543,-43.945,-653.320,-13.184,0.000
1587072116.291,-391.602,-42.969,-681.641,-14.160,0.000
1587072116.295,87.402,-30.762,-329.590,-52.734,0.000
1587072116.298,348.633,-31.738,-308.105,-60.059,0.000
1587072116.302,-58.594,-33.203,-475.098,-36.621,0.000
1587072116.306,-396.484,-35.156,-549.316,-15.137,0.000
1587072116.310,-53.223,-37.598,-408.691,-45.898,0.000
1587072116.314,347.656,-37.109,-341.797,-62.012,0.000
1587072116.318,69.336,-42.480,-434.082,-20.996,0.000
1587072116.322,-398.438,-48.828,-542.480,5.371,0.000
1587072116.326,-207.031,-45.410,-542.480,-10.742,0.000
1587072116.330,299.316,-42.969,-498.047,-39.062,0.000
1587072116.334,206.543,-46.387,-558.594,-15.625,0.000
1587072116.337,-307.129,-45.898,-483.887,11.230,0.000
1587072116.341,-321.777,-41.992,-480.957,-8.301,0.000
1587072116.345,189.453,-37.598,-425.781,-40.527,0.000
1587072116.349,308.594,-36.621,-449.219,-58.594,0.000
1587072116.353,-180.664,-39.062,-506.836,-31.250,0.000
1587072116.357,-384.277,-38.086,-481.445,-19.043,0.000
1587072116.361,51.758,-37.598,-411.621,-57.129,0.000
1587072116.365,342.285,-36.133,-340.332,-72.266,0.000
1587072116.369,-42.480,-39.062,-436.523,-41.992,0.000
1587072116.373,-422.852,-46.875,-566.895,-22.461,0.000
1587072116.377,-110.352,-52.246,-632.812,-35.156,0.000
1587072116.380,329.590,-42.969,-515.137,-69.824,0.000
1587072116.384,100.098,-33.203,-354.492,-60.547,0.000
1587072116.388,-388.184,-40.039,-513.184,-13.184,0.000
1587072116.392,-239.746,-40.039,-510.742,-20.508,0.000
1587072116.396,270.996,-32.227,-326.660,-50.781,0.000
1587072116.400,219.238,-32.227,-333.496,-41.504,0.000
1587072116.404,-298.828,-38.574,-540.527,-15.625,0.000
1587072116.408,-355.957,-42.969,-583.984,-28.809,0.000
1587072116.412,155.762,-35.645,-363.770,-60.547,0.000
1587072116.416,320.312,-29.785,-289.062,-60.059,0.000
1587072116.420,-165.039,-39.062,-584.961,-14.160,0.000
1587072116.423,-419.434,-47.363,-739.746,1.465,0.000
1587072116.427,17.090,-34.668,-404.785,-42.969,0.000
1587072116.431,349.609,-26.367,-280.273,-61.523,0.000
1587072116.435,-14.160,-38.574,-479.980,-20.996,0.000
1587072116.439,-430.664,-46.875,-620.117,2.930,0.000
1587072116.443,-148.926,-41.504,-522.949,-33.691,0.000
1587072116.447,326.660,-36.133,-378.418,-64.453,0.000
1587072116.451,160.645,-36.621,-416.504,-19.043,0.000
1587072116.455,-359.375,-48.340,-537.598,11.719,0.000
1587072116.459,-295.410,-54.199,-485.352,-37.109,0.000
1587072116.462,248.535,-45.898,-384.766,-78.125,0.000
1587072116.466,258.301,-46.875,-469.238,-50.781,0.000
1587072116.470,-277.344,-54.688,-593.750,-11.719,0.000
1587072116.474,-391.602,-58.105,-526.855,-39.062,0.000
1587072116.478,105.957,-54.688,-372.559,-77.148,0.000
1587072116.482,329.590,-57.617,-507.812,-79.590,0.000
1587072116.486,-123.535,-53.223,-575.195,-44.922,0.000
1587072116.490,-432.129,-49.805,-488.281,-36.133,0.000
1587072116.494,-31.250,-47.852,-468.750,-65.430,0.000
1587072116.498,353.516,-42.480,-360.840,-81.055,0.000
1587072116.502,46.875,-43.945,-393.555,-43.945,0.000
1587072116.505,-403.320,-43.945,-486.816,-11.719,0.000
1587072116.509,-182.129,-49.805,-525.879,-25.391,0.000
1587072116.513,305.176,-52.246,-482.910,-46.875,0.000
1587072116.517,173.340,-46.875,-392.090,-43.457,0.000
1587072116.521,-349.609,-49.805,-500.488,-14.160,0.000
1587072116.525,-301.758,-51.758,-689.453,-14.648,0.000
1587072116.529,235.840,-43.457,-553.223,-55.176,0.000
1587072116.533,281.250,-34.668,-314.453,-49.805,0.000
1587072116.537,-226.562,-41.504,-549.805,6.836,0.000
1587072116.541,-386.230,-49.316,-624.512,4.395,0.000
1587072116.545,83.984,-48.828,-409.180,-38.086,0.000
1587072116.548,346.191,-45.410,-324.707,-39.551,0.000
1587072116.552,-68.848,-46.875,-435.059,3.418,0.000
1587072116.556,-408.203,-52.246,-595.215,6.348,0.000
1587072116.560,-51.758,-47.363,-539.551,-38.086,0.000
1587072116.564,350.586,-40.527,-354.004,-46.387,0.000
1587072116.568,84.961,-42.480,-376.953,-26.855,0.000
1587072116.572,-372.559,-55.664,-697.754,12.207,0.000
1587072116.576,-191.895,-51.758,-635.254,3.906,0.000
1587072116.580,317.383,-36.133,-332.520,-40.527,0.000
1587072116.584,230.469,-36.133,-422.363,-23.438,0.000
1587072116.587,-293.945,-39.551,-541.504,17.090,0.000
1587072116.591,-316.895,-43.457,-500.488,16.113,0.000
1587072116.595,193.359,-39.062,-341.797,-17.090,0.000
1587072116.599,312.988,-32.227,-354.492,-31.250,0.000
1587072116.603,-171.875,-37.598,-561.035,-1.465,0.000
1587072116.607,-394.043,-42.969,-622.559,10.254,0.000
1587072116.611,51.758,-36.133,-408.203,-35.645,0.000
1587072116.615,355.469,-33.203,-443.848,-55.664,0.000
1587072116.619,-36.621,-39.062,-661.133,-14.648,0.000
1587072116.623,-416.016,-37.109,-526.367,4.883,0.000
1587072116.627,-97.656,-34.180,-421.875,-19.043,0.000
1587072116.630,349.121,-36.133,-390.137,-36.621,0.000
1587072116.634,127.441,-39.062,-416.992,-12.207,0.000
1587072116.638,-357.422,-37.598,-506.348,9.766,0.000
1587072116.642,-236.328,-41.016,-552.734,-42.480,0.000
1587072116.646,272.461,-39.551,-410.645,-86.426,0.000
1587072116.650,250.488,-34.668,-355.469,-50.781,0.000
1587072116.654,-277.832,-40.039,-590.332,-5.859,0.000
1587072116.658,-360.352,-42.480,-585.938,-19.043,0.000
1587072116.662,164.551,-42.969,-557.617,-54.199,0.000
1587072116.666,328.125,-43.945,-493.164,-54.688,0.000
1587072116.670,-156.738,-38.086,-402.344,-11.719,0.000
1587072116.673,-415.039,-41.504,-543.457,1.953,0.000
1587072116.677,4.883,-43.945,-439.453,-36.621,0.000
1587072116.681,357.422,-37.109,-304.199,-50.293,0.000
1587072116.685,15.625,-37.109,-374.512,-25.391,0.000
1587072116.689,-403.809,-42.969,-539.062,3.906,0.000
1587072116.693,-125.000,-45.898,-520.020,-15.137,0.000
1587072116.697,350.098,-44.922,-369.629,-49.316,0.000
1587072116.701,153.320,-48.340,-417.480,-20.508,0.000
1587072116.705,-353.027,-58.594,-644.531,14.160,0.000
1587072116.709,-267.090,-57.129,-697.754,-6.348,0.000
1587072116.712,253.906,-40.527,-367.188,-47.363,0.000
1587072116.716,276.367,-37.109,-314.453,-46.875,0.000
1587072116.720,-233.398,-42.969,-524.414,-1.953,0.000
1587072116.724,-351.074,-41.992,-597.168,7.812,0.000
1587072116.728,146.484,-34.668,-405.762,-37.598,0.000
1587072116.732,359.863,-33.203,-302.734,-60.059,0.000
1587072116.736,-93.750,-39.551,-467.773,-16.602,0.000
1587072116.740,-399.414,-41.504,-529.785,-1.465,0.000
1587072116.744,-10.742,-42.969,-448.242,-36.133,0.000
1587072116.748,372.559,-41.504,-380.371,-44.922,0.000
1587072116.752,52.734,-47.852,-591.797,-6.836,0.000
1587072116.755,-400.879,-53.711,-728.027,22.461,0.000
1587072116.759,-165.527,-44.922,-479.004,-8.789,0.000
1587072116.763,326.660,-37.109,-350.586,-58.594,0.000
1587072116.767,192.871,-35.645,-407.227,-39.551,0.000
1587072116.771,-329.590,-43.457,-505.371,3.906,0.000
1587072116.775,-277.344,-44.434,-507.812,-5.859,0.000
1587072116.779,249.023,-37.598,-391.113,-42.480,0.000
1587072116.783,283.691,-39.062,-396.484,-21.484,0.000
1587072116.787,-217.773,-41.992,-480.469,20.996,0.000
1587072116.791,-385.254,-44.922,-520.020,-3.906,0.000
1587072116.795,81.543,-50.293,-557.129,-24.902,0.000
1587072116.798,342.773,-48.828,-523.926,-16.113,0.000
1587072116.802,-77.148,-42.969,-456.543,-6.348,0.000
1587072116.806,-404.297,-42.480,-525.391,-0.977,0.000
1587072116.810,-51.758,-45.410,-501.953,-20.996,0.000
1587072116.814,341.309,-43.945,-399.414,-40.039,0.000
1587072116.818,63.477,-46.387,-434.570,-13.672,0.000
1587072116.822,-398.438,-49.805,-624.512,10.254,0.000
1587072116.826,-207.520,-46.387,-566.406,-13.672,0.000
1587072116.830,305.664,-36.133,-328.613,-49.805,0.000
1587072116.834,215.820,-30.762,-342.285,-24.902,0.000
1587072116.837,-306.641,-37.109,-533.691,21.484,0.000
1587072116.841,-320.312,-46.875,-606.934,7.812,0.000
1587072116.845,179.199,-49.316,-445.801,-38.086,0.000
1587072116.849,292.480,-41.992,-289.062,-40.039,0.000
1587072116.853,-179.199,-42.969,-473.145,2.930,0.000
1587072116.857,-397.949,-47.363,-631.836,17.578,0.000
1587072116.861,40.527,-37.109,-413.574,-12.207,0.000
1587072116.865,350.586,-27.832,-270.020,-36.133,0.000
1587072116.869,-32.227,-34.668,-435.059,0.977,0.000
1587072116.873,-408.203,-41.504,-588.867,27.832,0.000
1587072116.877,-78.613,-39.062,-500.488,9.277,0.000
1587072116.880,378.906,-28.320,-326.660,-14.648,0.000
1587072116.884,143.555,-30.762,-439.941,-2.930,0.000
1587072116.888,-348.633,-40.527,-665.527,9.766,0.000
1587072116.892,-221.680,-34.668,-558.594,-9.277,0.000
1587072116.896,270.996,-25.391,-303.711,-35.645,0.000
1587072116.900,223.633,-22.949,-432.617,-36.133,0.000
1587072116.904,-299.805,-28.320,-686.523,1.953,0.000
1587072116.908,-361.816,-25.879,-486.816,-12.695,0.000
1587072116.912,147.949,-20.996,-396.973,-46.387,0.000
1587072116.916,322.754,-14.648,-388.672,-49.316,0.000
1587072116.920,-143.555,-11.230,-439.453,-20.996,0.000
1587072116.923,-411.133,-12.207,-494.141,-11.719,0.000
1587072116.927,10.254,-8.301,-400.391,-33.203,0.000
1587072116.931,362.305,-12.207,-380.371,-41.992,0.000
1587072116.935,15.137,-20.020,-484.863,-18.555,0.000
1587072116.939,-403.320,-23.438,-602.539,21.484,0.000
1587072116.943,-119.629,-22.461,-513.672,-6.348,0.000
1587072116.947,339.844,-21.484,-496.094,-43.457,0.000
1587072116.951,156.738,-18.555,-555.176,-3.418,0.000
1587072116.955,-338.867,-12.207,-493.164,28.809,0.000
1587072116.959,-250.488,-13.184,-491.699,17.090,0.000
1587072116.962,270.020,-15.625,-370.117,-18.555,0.000
1587072116.966,284.668,-11.719,-325.195,-13.184,0.000
1587072116.970,-225.586,-16.113,-475.098,31.250,0.000
1587072116.974,-335.449,-22.461,-573.242,31.738,0.000
1587072116.978,156.738,-18.066,-459.473,1.953,0.000
1587072116.982,361.816,-16.602,-406.738,13.672,0.000
1587072116.986,-87.891,-23.438,-465.820,51.758,0.000
1587072116.990,-384.277,-30.762,-642.578,46.875,0.000
1587072116.994,4.883,-26.855,-683.105,17.578,0.000
1587072116.998,377.930,-11.719,-350.586,-1.953,0.000
1587072117.002,53.223,-17.090,-364.258,27.344,0.000
1587072117.005,-396.484,-32.227,-583.984,62.500,0.000
1587072117.009,-157.227,-30.762,-542.480,19.531,0.000
1587072117.013,332.520,-22.461,-318.848,-16.113,0.000
1587072117.017,199.707,-23.926,-366.699,0.488,0.000
1587072117.021,-320.312,-32.227,-561.523,28.809,0.000
1587072117.025,-312.500,-38.574,-520.508,22.461,0.000
1587072117.029,219.727,-35.645,-440.430,-9.277,0.000
1587072117.033,296.875,-34.180,-419.434,-3.418,0.000
1587072117.037,-205.078,-42.969,-656.250,37.109,0.000
1587072117.041,-376.465,-41.504,-714.844,39.062,0.000
1587072117.045,87.402,-29.785,-367.676,6.836,0.000
1587072117.048,357.422,-29.297,-352.051,5.371,0.000
1587072117.052,-61.523,-38.574,-554.688,31.738,0.000
1587072117.056,-427.246,-46.875,-578.613,31.738,0.000
1587072117.060,-77.148,-43.945,-415.039,-22.949,0.000
1587072117.064,352.051,-34.668,-344.727,-53.711,0.000
1587072117.068,94.727,-34.668,-449.219,-13.184,0.000
1587072117.072,-368.652,-40.039,-572.754,15.137,0.000
1587072117.076,-187.012,-37.598,-563.965,-12.207,0.000
1587072117.080,303.711,-32.715,-482.910,-39.062,0.000
1587072117.084,203.125,-35.645,-529.297,-17.578,0.000
1587072117.087,-315.430,-36.133,-524.902,11.230,0.000
1587072117.091,-331.543,-35.156,-494.141,0.977,0.000
1587072117.095,184.570,-35.156,-411.133,-33.691,0.000
1587072117.099,322.754,-37.109,-463.379,-47.363,0.000
1587072117.103,-173.340,-43.457,-520.020,6.348,0.000
1587072117.107,-417.480,-47.852,-532.227,11.719,0.000
1587072117.111,43.945,-45.898,-510.254,-43.457,0.000
1587072117.115,354.980,-41.016,-354.980,-44.922,0.000
1587072117.119,-26.367,-43.457,-436.523,-4.395,0.000
1587072117.123,-432.129,-50.781,-613.281,6.348,0.000
1587072117.127,-140.625,-53.711,-689.941,-22.949,0.000
1587072117.130,328.613,-49.316,-548.828,-51.758,0.000
1587072117.134,106.445,-40.039,-360.840,-28.809,0.000
1587072117.138,-406.738,-44.922,-538.086,15.137,0.000
1587072117.142,-267.090,-43.457,-519.043,-17.090,0.000
1587072117.146,259.277,-37.598,-316.895,-63.477,0.000
1587072117.150,230.957,-41.016,-322.266,-54.688,0.000
1587072117.154,-279.297,-43.457,-521.973,-9.766,0.000
1587072117.158,-363.281,-44.434,-587.402,-10.742,0.000
1587072117.162,152.344,-40.527,-377.930,-56.152,0.000
1587072117.166,305.664,-41.504,-346.680,-57.617,0.000
1587072117.170,-179.688,-53.711,-623.047,-30.273,0.000
1587072117.173,-420.410,-55.176,-715.820,-26.367,0.000
1587072117.177,4.883,-42.480,-472.168,-58.594,0.000
1587072117.181,350.098,-40.039,-271.973,-62.988,0.000
1587072117.185,0.977,-50.293,-525.391,-29.785,0.000
1587072117.189,-407.227,-56.641,-783.691,-14.648,0.000
1587072117.193,-132.324,-50.293,-547.363,-41.016,0.000
1587072117.197,335.449,-41.504,-356.445,-64.941,0.000
1587072117.201,144.531,-46.875,-398.926,-48.340,0.000
1587072117.205,-368.164,-58.105,-541.504,-20.996,0.000
1587072117.209,-285.156,-55.664,-478.516,-28.809,0.000
1587072117.212,252.441,-52.246,-337.891,-67.383,0.000
1587072117.216,273.926,-57.129,-445.312,-55.664,0.000
1587072117.220,-272.949,-62.012,-556.641,6.348,0.000
1587072117.224,-371.094,-58.594,-522.461,1.953,0.000
1587072117.228,142.578,-50.781,-455.566,-62.500,0.000
1587072117.232,331.055,-48.828,-424.316,-69.824,0.000
1587072117.236,-106.934,-52.734,-483.398,-36.133,0.000
1587072117.240,-411.621,-54.199,-541.992,-17.090,0.000
1587072117.244,-34.180,-53.223,-481.934,-41.016,0.000
1587072117.248,349.609,-55.664,-396.973,-58.594,0.000
1587072117.252,32.715,-59.570,-413.574,-38.086,0.000
1587072117.255,-402.344,-59.082,-510.742,-15.137,0.000
1587072117.259,-172.852,-56.152,-544.434,-30.273,0.000
1587072117.263,308.594,-56.152,-498.535,-66.406,0.000
1587072117.267,178.223,-51.270,-458.984,-41.992,0.000
1587072117.271,-341.797,-45.410,-487.793,-8.789,0.000
1587072117.275,-314.941,-44.922,-627.441,-21.484,0.000
1587072117.279,225.586,-38.086,-554.199,-69.336,0.000
1587072117.283,289.551,-33.691,-311.523,-66.406,0.000
1587072117.287,-225.586,-41.504,-521.973,-21.973,0.000
1587072117.291,-386.719,-44.434,-641.602,-28.320,0.000
1587072117.295,83.984,-38.574,-423.340,-61.523,0.000
1587072117.298,347.168,-35.156,-265.137,-58.594,0.000
1587072117.302,-66.895,-41.016,-421.875,-7.812,0.000
1587072117.306,-411.621,-45.410,-624.023,4.883,0.000
1587072117.310,-46.875,-38.574,-537.109,-27.344,0.000
1587072117.314,366.211,-33.691,-328.125,-46.387,0.000
1587072117.318,74.707,-38.574,-363.281,-23.438,0.000
1587072117.322,-403.320,-51.758,-708.496,9.766,0.000
1587072117.326,-214.355,-50.781,-660.645,-18.555,0.000
1587072117.330,305.176,-34.668,-279.785,-62.988,0.000
1587072117.334,214.844,-38.086,-338.379,-52.246,0.000
1587072117.337,-306.641,-43.457,-551.758,-21.973,0.000
1587072117.341,-307.129,-41.504,-536.621,-32.715,0.000
1587072117.345,208.984,-40.039,-391.602,-70.312,0.000
1587072117.349,303.711,-45.410,-418.945,-62.012,0.000
1587072117.353,-190.918,-49.805,-584.473,-12.695,0.000
1587072117.357,-409.668,-47.852,-641.602,-7.812,0.000
1587072117.361,43.945,-41.504,-431.152,-49.805,0.000
1587072117.365,360.840,-34.668,-431.641,-75.195,0.000
1587072117.369,-40.527,-42.969,-644.043,-30.273,0.000
1587072117.373,-418.457,-41.992,-556.641,-13.184,0.000
1587072117.377,-101.074,-33.203,-427.734,-59.570,0.000
1587072117.380,332.520,-34.668,-390.137,-75.195,0.000
1587072117.384,108.887,-40.039,-468.262,-52.734,0.000
1587072117.388,-385.742,-42.480,-508.789,-28.809,0.000
1587072117.392,-242.188,-41.016,-496.094,-53.711,0.000
1587072117.396,280.273,-34.668,-364.258,-86.914,0.000
1587072117.400,232.422,-33.203,-372.070,-51.758,0.000
1587072117.404,-304.199,-40.039,-586.426,-16.602,0.000
1587072117.408,-369.629,-44.434,-568.359,-49.316,0.000
1587072117.412,150.879,-43.945,-582.031,-78.125,0.000
1587072117.416,326.172,-37.109,-511.230,-77.637,0.000
1587072117.420,-145.996,-35.156,-405.762,-23.438,0.000
1587072117.423,-409.668,-44.434,-555.664,-16.602,0.000
1587072117.427,15.137,-44.922,-469.238,-79.590,0.000
1587072117.431,361.328,-41.504,-321.289,-73.730,0.000
1587072117.435,4.883,-40.527,-400.391,-45.898,0.000
1587072117.439,-415.527,-41.992,-578.613,-31.738,0.000
1587072117.443,-134.277,-41.016,-536.621,-34.668,0.000
1587072117.447,345.215,-33.691,-338.379,-62.500,0.000
1587072117.451,156.738,-37.109,-429.199,-41.016,0.000
1587072117.455,-370.117,-45.898,-682.129,-11.719,0.000
1587072117.459,-291.016,-46.387,-684.570,-38.086,0.000
1587072117.462,249.512,-35.156,-374.512,-64.941,0.000
1587072117.466,258.789,-36.133,-397.461,-42.480,0.000
1587072117.470,-272.949,-46.387,-599.121,-16.113,0.000
1587072117.474,-383.301,-44.922,-634.766,-37.109,0.000
1587072117.478,119.629,-37.598,-403.809,-63.965,0.000
1587072117.482,332.031,-36.133,-313.965,-73.242,0.000
1587072117.486,-125.977,-42.480,-502.441,-26.855,0.000
1587072117.490,-432.617,-46.387,-550.293,-1.465,0.000
1587072117.494,-35.645,-40.527,-462.891,-50.293,0.000
1587072117.498,348.145,-33.691,-351.074,-73.730,0.000
1587072117.502,11.719,-43.945,-566.406,-25.391,0.000
1587072117.505,-430.176,-45.410,-717.773,-14.160,0.000
1587072117.509,-172.363,-37.109,-443.848,-36.621,0.000
1587072117.513,307.129,-32.715,-346.191,-57.617,0.000
1587072117.517,160.645,-34.668,-416.992,-58.105,0.000
1587072117.521,-350.098,-43.457,-517.090,-19.531,0.000
1587072117.525,-310.547,-41.992,-530.762,-22.949,0.000
1587072117.529,224.121,-35.156,-398.438,-52.734,0.000
1587072117.533,291.016,-33.691,-350.098,-43.457,0.000
1587072117.537,-223.145,-41.504,-458.008,-0.977,0.000
1587072117.541,-397.461,-51.270,-550.293,-3.418,0.000
1587072117.545,78.613,-46.875,-539.551,-47.852,0.000
1587072117.548,349.121,-37.598,-442.871,-54.199,0.000
1587072117.552,-82.031,-40.039,-458.008,-13.184,0.000
1587072117.556,-437.012,-44.434,-520.020,-17.578,0.000
1587072117.560,-70.312,-41.992,-593.262,-47.363,0.000
1587072117.564,347.656,-42.969,-560.059,-45.410,0.000
1587072117.568,77.637,-42.969,-435.547,-29.785,0.000
1587072117.572,-393.066,-44.922,-586.914,-6.348,0.000
1587072117.576,-222.656,-47.852,-535.645,-14.160,0.000
1587072117.580,292.969,-41.016,-356.934,-53.711,0.000
1587072117.584,220.703,-35.645,-366.211,-43.457,0.000
1587072117.587,-301.270,-41.016,-527.832,-9.766,0.000
1587072117.591,-330.566,-46.387,-656.250,-5.371,0.000
1587072117.595,191.406,-40.039,-460.449,-46.387,0.000
1587072117.599,330.566,-34.180,-309.082,-57.617,0.000
1587072117.603,-169.922,-40.527,-496.582,-0.488,0.000
1587072117.607,-395.020,-43.945,-629.395,-6.348,0.000
1587072117.611,58.594,-36.621,-418.457,-54.199,0.000
1587072117.615,367.676,-31.250,-271.973,-64.941,0.000
1587072117.619,-17.578,-38.086,-455.078,-23.438,0.000
1587072117.623,-408.203,-44.922,-593.262,0.488,0.000
1587072117.627,-99.609,-44.922,-446.289,-28.809,0.000
1587072117.630,343.262,-40.039,-279.297,-48.340,0.000
1587072117.634,128.418,-43.945,-422.363,-24.902,0.000
1587072117.638,-373.047,-52.734,-662.598,1.465,0.000
1587072117.642,-248.535,-45.410,-569.824,-13.672,0.000
1587072117.646,270.508,-37.109,-321.289,-45.898,0.000
1587072117.650,241.211,-46.875,-450.684,-34.180,0.000
1587072117.654,-282.227,-59.082,-695.312,-1.953,0.000
1587072117.658,-353.516,-53.223,-530.762,-20.020,0.000
1587072117.662,151.367,-46.875,-435.547,-46.875,0.000
1587072117.666,310.547,-46.387,-386.230,-48.340,0.000
1587072117.670,-153.809,-46.875,-474.121,-9.766,0.000
1587072117.673,-413.086,-48.828,-544.922,3.906,0.000
1587072117.677,21.973,-48.340,-445.801,-33.691,0.000
1587072117.681,378.418,-42.969,-388.184,-52.246,0.000
1587072117.685,11.230,-44.434,-500.488,-14.160,0.000
1587072117.689,-409.668,-46.875,-591.309,15.625,0.000
1587072117.693,-131.836,-42.969,-443.359,-6.836,0.000
1587072117.697,338.867,-44.434,-518.066,-51.758,0.000
1587072117.701,145.020,-45.410,-634.277,-40.039,0.000
1587072117.705,-365.234,-42.969,-539.551,-20.996,0.000
1587072117.709,-272.461,-43.457,-509.277,-36.621,0.000
1587072117.712,250.977,-37.598,-366.211,-62.012,0.000
1587072117.716,271.484,-37.109,-335.449,-50.293,0.000
1587072117.720,-246.094,-41.992,-488.770,-13.672,0.000
1587072117.724,-379.883,-43.945,-537.598,-20.996,0.000
1587072117.728,123.535,-43.945,-457.520,-44.434,0.000
1587072117.732,354.492,-40.527,-405.273,-30.273,0.000
1587072117.736,-105.469,-39.551,-478.516,-19.531,0.000
1587072117.740,-419.434,-43.457,-638.184,-15.625,0.000
1587072117.744,-34.180,-47.363,-635.254,-44.922,0.000
1587072117.748,360.840,-36.133,-307.129,-70.801,0.000
1587072117.752,47.852,-31.738,-369.629,-36.133,0.000
1587072117.755,-408.691,-41.504,-625.000,-5.859,0.000
1587072117.759,-166.992,-41.016,-577.637,-31.738,0.000
1587072117.763,332.031,-28.320,-311.523,-63.965,0.000
1587072117.767,202.148,-24.902,-301.758,-39.062,0.000
1587072117.771,-318.359,-34.668,-523.438,-11.719,0.000
1587072117.775,-306.152,-37.598,-539.062,-23.926,0.000
1587072117.779,226.074,-29.297,-450.195,-42.969,0.000
1587072117.783,303.711,-30.273,-383.789,-41.504,0.000
1587072117.787,-206.055,-41.992,-638.184,-18.555,0.000
1587072117.791,-381.348,-41.504,-710.449,0.000,0.000
1587072117.795,95.703,-29.785,-362.793,-36.133,0.000
1587072117.798,362.793,-26.367,-349.121,-59.082,0.000
1587072117.802,-72.266,-33.203,-500.000,-29.785,0.000
1587072117.806,-416.504,-37.598,-530.762,-14.648,0.000
1587072117.810,-52.734,-35.645,-416.504,-44.922,0.000
1587072117.814,373.535,-35.645,-363.770,-64.453,0.000
1587072117.818,99.121,-42.969,-503.906,-20.508,0.000
1587072117.822,-383.301,-44.434,-591.309,13.184,0.000
1587072117.826,-186.035,-39.551,-505.371,-35.156,0.000
1587072117.830,329.102,-33.691,-425.781,-62.012,0.000
1587072117.834,216.797,-35.645,-515.625,-26.855,0.000
1587072117.837,-307.617,-40.039,-513.184,-8.789,0.000
1587072117.841,-323.242,-37.598,-472.656,-22.949,0.000
1587072117.845,202.637,-36.133,-434.570,-48.828,0.000
1587072117.849,328.613,-35.156,-434.570,-52.734,0.000
1587072117.853,-173.340,-32.227,-471.680,-22.949,0.000
1587072117.857,-398.438,-36.133,-532.715,-1.465,0.000
1587072117.861,37.598,-41.504,-442.871,-37.109,0.000
1587072117.865,347.168,-37.598,-300.781,-62.012,0.000
1587072117.869,-25.879,-37.109,-437.500,-20.020,0.000
1587072117.873,-420.898,-38.086,-611.816,-5.371,0.000
1587072117.877,-109.863,-37.109,-651.367,-33.691,0.000
1587072117.880,334.473,-39.551,-509.766,-76.172,0.000
1587072117.884,97.168,-36.133,-362.305,-68.359,0.000
1587072117.888,-384.766,-37.598,-544.922,-23.438,0.000
1587072117.892,-244.629,-41.504,-579.590,-43.457,0.000
1587072117.896,268.555,-39.062,-398.438,-66.895,0.000
1587072117.900,235.840,-34.180,-305.176,-43.457,0.000
1587072117.904,-283.691,-36.621,-500.488,-5.371,0.000
1587072117.908,-355.469,-42.969,-569.336,-14.648,0.000
1587072117.912,163.086,-31.738,-354.004,-59.082,0.000
1587072117.916,340.332,-26.367,-334.961,-60.547,0.000
1587072117.920,-147.949,-40.527,-587.402,-17.578,0.000
1587072117.923,-407.715,-42.969,-663.574,-8.301,0.000
1587072117.927,17.578,-33.203,-428.223,-39.551,0.000
1587072117.931,356.934,-29.297,-278.809,-58.594,0.000
1587072117.935,3.418,-40.527,-542.969,-26.367,0.000
1587072117.939,-419.922,-45.410,-726.562,2.441,0.000
1587072117.943,-141.602,-39.062,-469.238,-22.461,0.000
1587072117.947,345.703,-36.133,-334.473,-48.340,0.000
1587072117.951,160.645,-38.574,-395.508,-17.578,0.000
1587072117.955,-368.652,-41.992,-544.434,-0.977,0.000
1587072117.959,-280.273,-40.527,-468.750,-41.016,0.000
1587072117.962,252.441,-38.574,-329.590,-52.734,0.000
1587072117.966,270.508,-40.527,-441.895,-36.621,0.000
1587072117.970,-250.977,-41.504,-560.059,-13.672,0.000
1587072117.974,-371.094,-36.621,-487.793,-17.090,0.000
1587072117.978,112.305,-38.086,-387.695,-51.758,0.000
1587072117.982,333.008,-38.574,-426.758,-64.453,0.000
1587072117.986,-111.328,-38.086,-463.379,-26.855,0.000
1587072117.990,-425.781,-42.969,-507.324,2.930,0.000
1587072117.994,-29.297,-43.945,-503.418,-34.668,0.000
1587072117.998,361.816,-38.574,-351.562,-52.246,0.000
1587072118.002,57.129,-34.668,-375.977,-19.043,0.000
1587072118.005,-388.672,-33.691,-524.414,-7.812,0.000
1587072118.009,-181.641,-37.109,-531.738,-3.906,0.000
1587072118.013,301.270,-40.039,-468.262,-42.480,0.000
1587072118.017,186.523,-32.715,-390.625,-51.758,0.000
1587072118.021,-335.449,-34.180,-458.984,-7.812,0.000
1587072118.025,-309.570,-39.062,-604.492,-20.508,0.000
1587072118.029,229.004,-35.156,-527.344,-57.129,0.000
1587072118.033,294.922,-29.297,-304.199,-58.594,0.000
1587072118.037,-230.957,-38.086,-504.883,-16.602,0.000
1587072118.041,-399.414,-44.434,-610.352,-5.371,0.000
1587072118.045,86.914,-35.156,-407.715,-43.457,0.000
1587072118.048,357.422,-26.367,-286.133,-58.105,0.000
1587072118.052,-64.941,-30.762,-425.781,-13.184,0.000
1587072118.056,-423.828,-44.434,-628.906,-3.418,0.000
1587072118.060,-69.336,-41.992,-547.363,-42.969,0.000
1587072118.064,366.699,-28.809,-324.707,-56.152,0.000
1587072118.068,90.332,-26.367,-344.238,-42.969,0.000
1587072118.072,-390.625,-39.062,-708.496,2.441,0.000
1587072118.076,-209.961,-34.668,-666.016,-16.113,0.000
1587072118.080,310.059,-18.555,-285.156,-72.754,0.000
1587072118.084,229.492,-25.391,-372.070,-38.086,0.000
1587072118.087,-305.664,-34.180,-592.285,6.348,0.000
1587072118.091,-312.012,-33.203,-548.828,-12.207,0.000
1587072118.095,210.449,-23.926,-343.262,-45.410,0.000
1587072118.099,318.848,-21.973,-359.863,-43.945,0.000
1587072118.103,-178.223,-30.273,-585.938,-19.531,0.000
1587072118.107,-398.926,-32.227,-636.230,-0.977,0.000
1587072118.111,62.988,-34.180,-461.914,-30.273,0.000
1587072118.115,359.863,-37.598,-455.078,-65.918,0.000
1587072118.119,-39.062,-40.039,-619.141,-24.902,0.000
1587072118.123,-417.969,-42.480,-544.922,-10.742,0.000
1587072118.127,-98.633,-39.551,-431.641,-49.805,0.000
1587072118.130,357.422,-26.855,-393.066,-55.664,0.000
1587072118.134,133.301,-23.438,-454.102,-20.996,0.000
1587072118.138,-382.812,-35.156,-504.395,0.488,0.000
1587072118.142,-271.973,-43.457,-476.074,-30.762,0.000
1587072118.146,263.672,-42.969,-352.539,-60.059,0.000
1587072118.150,247.070,-39.551,-350.098,-47.363,0.000
1587072118.154,-290.039,-45.898,-563.477,-23.926,0.000
1587072118.158,-363.770,-51.270,-585.449,-28.809,0.000
1587072118.162,144.043,-48.340,-572.754,-44.922,0.000
1587072118.166,324.219,-39.551,-510.254,-46.875,0.000
1587072118.170,-135.254,-37.109,-448.242,-25.879,0.000
1587072118.173,-419.922,-43.945,-621.094,-16.602,0.000
1587072118.177,-4.395,-39.551,-492.188,-43.945,0.000
1587072118.181,352.539,-36.621,-299.316,-61.523,0.000
1587072118.185,-3.418,-45.898,-407.715,-26.855,0.000
1587072118.189,-420.898,-57.617,-607.910,5.371,0.000
1587072118.193,-154.297,-61.523,-532.715,-20.996,0.000
1587072118.197,319.336,-55.664,-345.703,-55.176,0.000
1587072118.201,140.137,-56.152,-426.270,-39.062,0.000
1587072118.205,-366.211,-64.453,-663.086,-1.465,0.000
1587072118.209,-286.133,-70.801,-697.754,-10.254,0.000
1587072118.212,231.934,-55.664,-378.418,-26.855,0.000
1587072118.216,255.859,-48.828,-320.312,-16.602,0.000
1587072118.220,-261.719,-60.059,-575.684,20.508,0.000
1587072118.224,-384.277,-59.570,-663.574,14.648,0.000
1587072118.228,105.469,-53.711,-450.195,-55.664,0.000
1587072118.232,339.844,-47.363,-399.902,-48.340,0.000
1587072118.236,-116.699,-47.363,-532.227,-3.906,0.000
1587072118.240,-442.383,-49.805,-550.781,-4.883,0.000
1587072118.244,-43.457,-41.992,-441.406,-34.180,0.000
1587072118.248,351.562,-38.574,-363.770,-38.086,0.000
1587072118.252,41.016,-47.363,-612.305,-1.953,0.000
1587072118.255,-418.457,-54.688,-735.840,14.160,0.000
1587072118.259,-183.594,-42.969,-429.688,-20.996,0.000
1587072118.263,310.059,-37.109,-333.984,-41.016,0.000
1587072118.267,165.527,-40.527,-437.988,-3.418,0.000
1587072118.271,-353.516,-37.598,-534.668,-5.859,0.000
1587072118.275,-304.688,-32.715,-495.117,-36.133,0.000
1587072118.279,233.887,-33.203,-381.348,-57.129,0.000
1587072118.283,285.645,-41.016,-393.555,-52.246,0.000
1587072118.287,-238.770,-48.340,-484.863,-12.207,0.000
1587072118.291,-376.465,-41.016,-562.988,-4.395,0.000
1587072118.295,107.910,-29.785,-513.184,-34.180,0.000
1587072118.298,354.980,-26.367,-380.859,-41.992,0.000
1587072118.302,-59.082,-27.344,-402.344,2.930,0.000
1587072118.306,-421.387,-33.691,-494.141,9.766,0.000
1587072118.310,-63.477,-36.133,-557.617,-39.062,0.000
1587072118.314,375.977,-35.156,-581.543,-59.570,0.000
1587072118.318,89.355,-33.691,-477.051,-16.602,0.000
1587072118.322,-398.438,-36.133,-545.898,13.184,0.000
1587072118.326,-209.961,-38.574,-516.113,-32.227,0.000
1587072118.330,291.016,-35.645,-344.727,-57.617,0.000
1587072118.334,204.102,-33.691,-297.363,-37.109,0.000
1587072118.337,-306.152,-37.598,-485.840,4.395,0.000
1587072118.341,-321.777,-43.457,-641.113,7.324,0.000
1587072118.345,187.500,-36.621,-489.258,-36.133,0.000
1587072118.349,314.453,-28.809,-326.660,-46.387,0.000
1587072118.353,-178.223,-39.551,-468.750,-23.438,0.000
1587072118.357,-407.227,-45.898,-604.980,-21.973,0.000
1587072118.361,33.691,-38.574,-408.691,-50.293,0.000
1587072118.365,349.609,-31.738,-296.387,-57.617,0.000
1587072118.369,-23.438,-36.621,-462.891,-8.789,0.000
1587072118.373,-413.086,-41.504,-568.848,8.301,0.000
1587072118.377,-104.980,-36.621,-430.664,-21.973,0.000
1587072118.380,355.469,-31.738,-283.203,-42.480,0.000
1587072118.384,109.863,-37.598,-429.199,-35.645,0.000
1587072118.388,-396.973,-45.898,-654.297,-23.438,0.000
1587072118.392,-242.188,-37.598,-533.691,-41.504,0.000
1587072118.396,278.809,-27.832,-280.762,-63.965,0.000
1587072118.400,252.930,-29.785,-408.691,-48.340,0.000
1587072118.404,-289.551,-36.133,-668.945,-23.926,0.000
1587072118.408,-381.836,-38.086,-574.219,-30.273,0.000
1587072118.412,145.508,-37.109,-428.711,-60.059,0.000
1587072118.416,325.684,-39.062,-387.207,-62.012,0.000
1587072118.420,-157.227,-39.551,-478.516,-16.113,0.000
1587072118.423,-429.199,-37.109,-528.320,-5.859,0.000
1587072118.427,-1.465,-33.691,-416.992,-42.480,0.000
1587072118.431,364.258,-31.738,-372.559,-60.059,0.000
1587072118.435,12.207,-39.062,-509.766,-24.414,0.000
1587072118.439,-415.039,-43.457,-572.754,-5.371,0.000
1587072118.443,-133.789,-40.039,-453.613,-34.180,0.000
1587072118.447,334.473,-43.945,-514.160,-50.781,0.000
1587072118.451,126.465,-48.828,-561.523,-48.340,0.000
1587072118.455,-375.000,-43.945,-472.656,-23.926,0.000
1587072118.459,-291.504,-41.504,-510.254,-30.273,0.000
1587072118.462,233.887,-38.086,-386.230,-59.570,0.000
1587072118.466,270.020,-37.598,-391.602,-37.598,0.000
1587072118.470,-246.582,-41.504,-533.691,-5.371,0.000
1587072118.474,-362.793,-45.410,-562.988,-15.625,0.000
1587072118.478,119.141,-42.969,-473.145,-38.086,0.000
1587072118.482,335.449,-32.227,-407.227,-48.828,0.000
1587072118.486,-100.586,-32.227,-443.848,-22.949,0.000
1587072118.490,-416.504,-33.203,-578.125,-5.859,0.000
1587072118.494,-42.969,-34.180,-609.863,-44.434,0.000
1587072118.498,357.422,-30.273,-274.902,-62.500,0.000
1587072118.502,52.734,-32.227,-320.801,-33.691,0.000
1587072118.505,-400.879,-42.969,-604.980,-12.695,0.000
1587072118.509,-170.410,-41.504,-501.953,-29.297,0.000
1587072118.513,320.801,-27.344,-260.254,-48.828,0.000
1587072118.517,177.734,-27.344,-324.707,-23.438,0.000
1587072118.521,-348.633,-41.016,-523.438,-3.906,0.000
1587072118.525,-323.730,-43.457,-546.387,-43.457,0.000
1587072118.529,209.961,-32.715,-396.973,-66.406,0.000
1587072118.533,290.527,-30.273,-370.605,-57.617,0.000
1587072118.537,-220.703,-38.086,-506.836,-28.809,0.000
1587072118.541,-398.438,-41.992,-493.652,-29.785,0.000
1587072118.545,88.867,-37.109,-347.168,-67.871,0.000
1587072118.548,355.469,-34.180,-266.602,-51.758,0.000
1587072118.552,-77.637,-45.410,-559.082,0.977,0.000
1587072118.556,-435.547,-45.898,-641.113,-10.742,0.000
1587072118.560,-69.824,-34.180,-389.648,-51.758,0.000
1587072118.564,369.141,-34.180,-344.238,-73.242,0.000
1587072118.568,79.102,-37.109,-410.156,-37.598,0.000
1587072118.572,-406.738,-38.086,-535.156,-13.672,0.000
1587072118.576,-218.262,-39.551,-536.133,-36.133,0.000
1587072118.580,294.922,-35.645,-448.730,-68.359,0.000
1587072118.584,228.516,-39.551,-541.504,-33.203,0.000
1587072118.587,-287.598,-40.039,-531.250,5.371,0.000
1587072118.591,-337.402,-39.062,-434.570,-15.625,0.000
1587072118.595,186.523,-41.992,-407.715,-47.363,0.000
1587072118.599,312.012,-43.457,-458.008,-59.082,0.000
1587072118.603,-191.406,-43.945,-463.867,-9.277,0.000
1587072118.607,-412.109,-42.480,-484.375,-8.301,0.000
1587072118.611,45.410,-42.480,-420.410,-38.574,0.000
1587072118.615,368.164,-38.574,-299.805,-49.316,0.000
1587072118.619,-24.414,-37.598,-415.039,-31.250,0.000
1587072118.623,-420.410,-43.457,-584.961,-13.672,0.000
1587072118.627,-111.816,-41.016,-615.723,-42.480,0.000
1587072118.630,353.516,-33.203,-473.633,-54.199,0.000
1587072118.634,133.301,-29.785,-312.500,-39.551,0.000
1587072118.638,-382.812,-33.691,-495.605,-10.742,0.000
1587072118.642,-254.395,-33.691,-563.477,-33.691,0.000
1587072118.646,275.879,-29.297,-366.699,-77.637,0.000
1587072118.650,238.770,-30.762,-289.551,-63.965,0.000
1587072118.654,-280.762,-33.691,-482.422,-27.832,0.000
1587072118.658,-347.656,-33.203,-554.199,-27.832,0.000
1587072118.662,151.367,-30.762,-374.023,-50.293,0.000
1587072118.666,317.871,-29.785,-316.406,-47.363,0.000
1587072118.670,-145.508,-34.180,-556.641,-8.789,0.000
1587072118.673,-414.551,-39.551,-677.246,-4.883,0.000
1587072118.677,-9.766,-36.621,-433.594,-41.016,0.000
1587072118.681,352.539,-32.227,-302.246,-66.895,0.000
1587072118.685,10.254,-39.062,-511.230,-60.059,0.000
1587072118.689,-419.434,-43.945,-641.113,-9.277,0.000
1587072118.693,-149.902,-41.992,-496.582,-29.297,0.000
1587072118.697,336.914,-38.086,-372.559,-62.988,0.000
1587072118.701,151.367,-35.156,-409.668,-31.738,0.000
1587072118.705,-352.539,-34.668,-543.457,-10.742,0.000
1587072118.709,-261.230,-29.297,-468.750,-36.133,0.000
1587072118.712,254.395,-29.297,-342.285,-57.129,0.000
1587072118.716,278.320,-38.086,-488.770,-47.363,0.000
1587072118.720,-244.141,-41.016,-606.445,-5.371,0.000
1587072118.724,-369.141,-31.738,-497.070,-17.578,0.000
1587072118.728,124.512,-33.203,-424.316,-62.988,0.000
1587072118.732,331.543,-40.039,-408.203,-70.312,0.000
1587072118.736,-122.070,-43.457,-490.234,-34.180,0.000
1587072118.740,-421.387,-44.922,-588.379,-20.020,0.000
1587072118.744,-29.785,-38.574,-477.051,-66.895,0.000
1587072118.748,353.027,-31.738,-359.375,-65.918,0.000
1587072118.752,51.270,-34.180,-411.133,-20.020,0.000
1587072118.755,-400.879,-38.574,-544.922,-24.414,0.000
1587072118.759,-181.641,-37.598,-562.012,-45.898,0.000
1587072118.763,300.781,-31.738,-456.055,-58.105,0.000
1587072118.767,179.688,-27.832,-432.129,-41.016,0.000
1587072118.771,-337.891,-27.832,-515.137,-12.695,0.000
1587072118.775,-326.172,-32.227,-597.656,-30.762,0.000
1587072118.779,210.938,-37.109,-549.805,-54.688,0.000
1587072118.783,285.645,-31.738,-306.641,-61.035,0.000
1587072118.787,-214.844,-39.062,-479.004,-25.879,0.000
1587072118.791,-391.113,-44.922,-608.887,-12.695,0.000
1587072118.795,83.496,-34.180,-432.617,-29.297,0.000
1587072118.798,346.191,-24.414,-311.035,-55.664,0.000
1587072118.802,-85.449,-25.879,-415.039,-71.777,0.000
1587072118.806,-440.918,-35.156,-607.422,-36.133,0.000
1587072118.810,-79.102,-32.227,-572.754,-60.547,0.000
1587072118.814,345.703,-18.555,-367.188,-87.402,0.000
1587072118.818,73.242,-16.113,-378.906,-73.242,0.000
1587072118.822,-403.320,-25.879,-721.680,-45.898,0.000
1587072118.826,-226.074,-24.902,-684.570,-57.617,0.000
1587072118.830,278.809,-14.648,-331.543,-109.375,0.000
1587072118.834,188.477,-14.648,-400.879,-100.098,0.000
1587072118.837,-321.777,-22.461,-557.129,-65.918,0.000
1587072118.841,-347.656,-23.438,-517.578,-53.223,0.000
1587072118.845,164.062,-14.648,-346.680,-77.637,0.000
1587072118.849,303.223,-18.555,-345.703,-96.680,0.000
1587072118.853,-185.547,-26.367,-549.805,-40.527,0.000
1587072118.857,-416.992,-26.367,-621.094,-14.160,0.000
1587072118.861,32.227,-22.461,-481.934,-75.195,0.000
1587072118.865,347.168,-24.414,-446.777,-86.426,0.000
1587072118.869,-35.156,-27.832,-601.562,-42.969,0.000
1587072118.873,-424.805,-24.414,-541.016,-35.645,0.000
1587072118.877,-103.027,-22.461,-422.852,-63.477,0.000
1587072118.880,352.051,-22.461,-433.594,-87.891,0.000
1587072118.884,133.789,-23.926,-485.352,-58.594,0.000
1587072118.888,-349.609,-27.344,-504.883,-23.438,0.000
1587072118.892,-232.910,-26.855,-496.582,-19.531,0.000
1587072118.896,283.691,-29.297,-370.605,-56.641,0.000
1587072118.900,249.512,-30.762,-360.352,-58.105,0.000
1587072118.904,-261.719,-32.715,-576.660,-17.090,0.000
1587072118.908,-332.031,-38.086,-576.172,-12.207,0.000
1587072118.912,155.762,-43.945,-560.059,-43.457,0.000
1587072118.916,330.078,-41.016,-519.531,-62.988,0.000
1587072118.920,-132.812,-37.109,-395.996,-22.949,0.000
1587072118.923,-395.996,-42.969,-522.461,-10.742,0.000
1587072118.927,19.531,-40.527,-489.258,-44.922,0.000
1587072118.931,365.723,-32.715,-307.129,-58.594,0.000
1587072118.935,25.879,-37.598,-409.668,-35.156,0.000
1587072118.939,-394.043,-48.828,-633.789,-3.418,0.000
1587072118.943,-123.047,-46.387,-494.141,-34.180,0.000
1587072118.947,359.375,-38.574,-305.176,-74.219,0.000
1587072118.951,155.762,-42.969,-403.809,-43.945,0.000
1587072118.955,-360.352,-52.734,-625.977,-13.184,0.000
1587072118.959,-269.531,-58.105,-649.414,-21.484,0.000
1587072118.962,244.629,-45.410,-311.523,-66.406,0.000
1587072118.966,272.461,-37.109,-233.398,-66.895,0.000
1587072118.970,-242.676,-43.457,-539.062,-18.555,0.000
1587072118.974,-378.906,-48.340,-660.645,-7.812,0.000
1587072118.978,116.211,-41.992,-358.398,-47.363,0.000
1587072118.982,348.145,-35.645,-230.469,-45.898,0.000
1587072118.986,-83.496,-41.016,-415.039,-1.465,0.000
1587072118.990,-416.504,-46.875,-498.047,2.930,0.000
1587072118.994,-40.527,-41.504,-394.531,-35.156,0.000
1587072118.998,354.004,-39.551,-319.336,-48.340,0.000
1587072119.002,51.758,-45.898,-560.547,-11.230,0.000
1587072119.005,-389.648,-48.340,-677.734,11.719,0.000
1587072119.009,-166.504,-42.480,-406.250,-13.672,0.000
1587072119.013,332.520,-39.551,-331.543,-53.711,0.000
1587072119.017,203.125,-37.598,-375.000,-26.367,0.000
1587072119.021,-301.270,-36.621,-471.680,22.461,0.000
1587072119.025,-281.738,-36.133,-455.078,-8.301,0.000
1587072119.029,241.699,-28.320,-319.824,-42.969,0.000
1587072119.033,316.406,-27.344,-350.098,-20.996,0.000
1587072119.037,-200.684,-32.227,-456.055,0.977,0.000
1587072119.041,-383.301,-33.691,-500.488,-4.395,0.000
1587072119.045,90.820,-34.668,-500.488,-35.156,0.000
1587072119.048,366.699,-33.691,-458.496,-48.340,0.000
1587072119.052,-60.059,-33.203,-434.082,-8.301,0.000
1587072119.056,-416.016,-38.086,-524.902,12.695,0.000
1587072119.060,-76.660,-38.086,-535.156,-25.879,0.000
1587072119.064,345.703,-31.250,-387.207,-51.758,0.000
1587072119.068,81.543,-33.203,-385.254,-17.090,0.000
1587072119.072,-410.645,-41.504,-539.062,5.371,0.000
1587072119.076,-230.469,-38.574,-479.004,-26.367,0.000
1587072119.080,297.852,-31.250,-316.895,-39.062,0.000
1587072119.084,218.262,-32.715,-297.363,-44.922,0.000
1587072119.087,-312.988,-38.086,-491.699,-28.809,0.000
1587072119.091,-333.984,-42.480,-670.410,-12.207,0.000
1587072119.095,168.945,-38.574,-462.891,-48.828,0.000
1587072119.099,295.898,-29.297,-247.559,-43.457,0.000
1587072119.103,-174.316,-32.715,-451.660,-8.789,0.000
1587072119.107,-400.879,-41.992,-624.023,-7.324,0.000
1587072119.111,45.898,-39.062,-416.016,-40.039,0.000
1587072119.115,367.676,-32.715,-318.359,-46.387,0.000
1587072119.119,-33.691,-36.133,-463.379,-17.578,0.000
1587072119.123,-407.227,-38.086,-537.109,-5.859,0.000
1587072119.127,-86.914,-36.621,-420.410,-29.297,0.000
1587072119.130,355.957,-29.785,-301.758,-61.523,0.000
1587072119.134,137.695,-32.227,-404.297,-23.438,0.000
1587072119.138,-367.676,-40.527,-595.215,17.090,0.000
1587072119.142,-244.141,-35.645,-504.883,-16.602,0.000
1587072119.146,289.551,-23.438,-269.043,-61.523,0.000
1587072119.150,259.766,-23.926,-405.762,-36.133,0.000
1587072119.154,-268.555,-33.203,-635.254,8.789,0.000
1587072119.158,-351.562,-29.785,-510.742,-9.277,0.000
1587072119.162,160.645,-24.414,-367.676,-52.734,0.000
1587072119.166,335.449,-26.367,-465.820,-58.594,0.000
1587072119.170,-143.066,-32.715,-641.602,-20.508,0.000
1587072119.173,-409.668,-29.297,-544.434,-1.953,0.000
1587072119.177,25.391,-26.855,-395.508,-44.922,0.000
1587072119.181,373.535,-22.461,-333.984,-61.035,0.000
1587072119.185,19.043,-27.344,-462.402,-20.508,0.000
1587072119.189,-401.367,-36.133,-532.715,-2.441,0.000
1587072119.193,-148.438,-30.762,-406.738,-38.086,0.000
1587072119.197,322.754,-36.621,-476.074,-53.711,0.000
1587072119.201,147.949,-38.574,-551.270,-26.367,0.000
1587072119.205,-358.398,-29.297,-444.336,-4.395,0.000
1587072119.209,-273.926,-33.203,-481.445,-15.625,0.000
1587072119.212,251.953,-37.109,-388.184,-58.105,0.000
1587072119.216,277.832,-34.668,-306.152,-61.523,0.000
1587072119.220,-250.000,-36.621,-437.500,0.000,0.000
1587072119.224,-360.352,-43.457,-520.508,3.906,0.000
1587072119.228,122.070,-43.945,-470.215,-49.805,0.000
1587072119.232,312.988,-43.945,-430.664,-54.688,0.000
1587072119.236,-107.422,-46.387,-497.070,-19.531,0.000
1587072119.240,-422.852,-46.875,-655.273,0.000,0.000
1587072119.244,-43.945,-44.922,-608.887,-38.086,0.000
1587072119.248,352.051,-36.621,-305.176,-58.594,0.000
1587072119.252,48.340,-35.645,-362.793,-33.691,0.000
1587072119.255,-408.203,-44.434,-621.582,-8.789,0.000
1587072119.259,-180.176,-45.898,-543.457,-27.832,0.000
1587072119.263,312.500,-36.133,-268.066,-58.105,0.000
1587072119.267,201.172,-34.668,-349.121,-38.574,0.000
1587072119.271,-307.617,-43.945,-548.828,4.883,0.000
1587072119.275,-324.219,-45.410,-518.555,-14.648,0.000
1587072119.279,200.684,-38.574,-427.734,-55.664,0.000
1587072119.283,294.434,-37.109,-349.121,-53.223,0.000
1587072119.287,-211.426,-49.316,-614.258,5.371,0.000
1587072119.291,-390.137,-52.734,-740.723,18.555,0.000
1587072119.295,91.797,-38.574,-370.117,-42.480,0.000
1587072119.298,358.398,-35.645,-279.785,-45.410,0.000
1587072119.302,-58.594,-41.992,-457.031,3.418,0.000
1587072119.306,-404.785,-45.410,-520.996,11.719,0.000
1587072119.310,-62.500,-46.875,-412.598,-20.020,0.000
1587072119.314,354.004,-42.969,-312.012,-34.668,0.000
1587072119.318,80.078,-42.480,-395.508,-21.484,0.000
1587072119.322,-380.859,-47.852,-508.301,-1.953,0.000
1587072119.326,-204.590,-48.340,-520.996,-22.461,0.000
1587072119.330,291.016,-43.457,-418.945,-53.223,0.000
1587072119.334,214.844,-41.992,-456.055,-24.902,0.000
1587072119.337,-312.500,-41.016,-493.652,1.953,0.000
1587072119.341,-322.754,-40.039,-446.289,-19.531,0.000
1587072119.345,172.363,-42.969,-427.734,-50.293,0.000
1587072119.349,279.297,-41.992,-455.078,-52.246,0.000
1587072119.353,-187.500,-43.945,-489.258,-13.672,0.000
1587072119.357,-400.391,-40.527,-518.066,16.113,0.000
1587072119.361,41.504,-35.645,-406.738,-22.461,0.000
1587072119.365,342.773,-34.668,-297.852,-56.152,0.000
1587072119.369,-28.809,-32.715,-435.059,-19.531,0.000
1587072119.373,-403.809,-38.086,-584.961,0.000,0.000
1587072119.377,-108.398,-41.992,-634.277,-30.762,0.000
1587072119.380,327.148,-34.668,-507.324,-56.641,0.000
1587072119.384,112.305,-27.832,-323.730,-28.809,0.000
1587072119.388,-385.742,-41.992,-506.348,1.953,0.000
1587072119.392,-251.465,-47.363,-522.949,-30.762,0.000
1587072119.396,273.926,-37.109,-325.195,-47.363,0.000
1587072119.400,250.488,-31.738,-316.895,-35.156,0.000
1587072119.404,-274.902,-39.062,-507.812,-20.508,0.000
1587072119.408,-352.051,-45.410,-614.746,-24.902,0.000
1587072119.412,148.926,-40.527,-402.832,-58.594,0.000
1587072119.416,318.848,-38.086,-289.551,-56.641,0.000
1587072119.420,-150.879,-48.828,-533.691,-20.020,0.000
1587072119.423,-406.250,-52.734,-661.133,4.395,0.000
1587072119.427,35.156,-38.086,-401.367,-15.625,0.000
1587072119.431,355.957,-33.691,-240.723,-66.406,0.000
1587072119.435,2.441,-40.039,-464.355,-30.273,0.000
1587072119.439,-396.484,-39.062,-605.469,10.742,0.000
1587072119.443,-126.465,-35.645,-488.281,-27.832,0.000
1587072119.447,341.797,-33.691,-369.141,-58.594,0.000
1587072119.451,161.133,-39.551,-376.465,-31.250,0.000
1587072119.455,-349.121,-43.945,-545.410,17.090,0.000
1587072119.459,-253.418,-39.551,-470.215,10.742,0.000
1587072119.462,262.207,-34.180,-347.656,-28.809,0.000
1587072119.466,267.578,-33.203,-433.594,-39.551,0.000
1587072119.470,-232.910,-40.039,-589.844,-12.695,0.000
1587072119.474,-361.328,-45.898,-578.613,-11.719,0.000
1587072119.478,113.770,-42.480,-362.793,-41.504,0.000
1587072119.482,348.633,-45.898,-523.926,-37.598,0.000
1587072119.486,-102.539,-45.410,-657.227,-4.395,0.000
1587072119.490,-418.457,-39.062,-479.492,7.812,0.000
1587072119.494,-23.438,-36.621,-429.688,-26.855,0.000
1587072119.498,360.352,-36.621,-358.887,-58.105,0.000
1587072119.502,49.805,-42.969,-394.043,-7.812,0.000
1587072119.505,-401.367,-44.922,-508.789,20.020,0.000
1587072119.509,-174.805,-43.457,-505.859,-38.086,0.000
1587072119.513,326.660,-40.527,-442.383,-62.012,0.000
1587072119.517,189.453,-33.203,-392.090,-30.762,0.000
1587072119.521,-339.355,-38.086,-461.426,0.000,0.000
1587072119.525,-295.898,-44.922,-609.863,-15.137,0.000
1587072119.529,236.328,-36.133,-523.438,-50.781,0.000
1587072119.533,324.707,-28.809,-334.961,-40.527,0.000
1587072119.537,-182.617,-32.715,-515.625,-2.441,0.000
1587072119.541,-378.418,-32.715,-635.742,2.930,0.000
1587072119.545,87.891,-22.949,-469.238,-24.414,0.000
1587072119.548,361.816,-19.043,-308.105,-41.016,0.000
1587072119.552,-54.688,-28.320,-404.297,-25.879,0.000
1587072119.556,-416.992,-41.992,-583.984,4.883,0.000
1587072119.560,-43.945,-41.992,-559.570,-20.996,0.000
1587072119.564,378.906,-33.203,-389.648,-61.035,0.000
1587072119.568,91.797,-34.668,-380.859,-37.109,0.000
1587072119.572,-391.602,-44.922,-702.148,-1.953,0.000
1587072119.576,-216.797,-44.434,-662.109,-30.273,0.000
1587072119.580,296.387,-36.621,-330.566,-80.078,0.000
1587072119.584,217.285,-37.109,-441.895,-48.828,0.000
1587072119.587,-304.199,-42.480,-558.594,2.930,0.000
1587072119.591,-319.336,-43.945,-515.137,-7.324,0.000
1587072119.595,203.613,-33.203,-364.258,-62.988,0.000
1587072119.599,318.359,-29.785,-357.910,-45.898,0.000
1587072119.603,-173.340,-38.086,-530.762,-21.484,0.000
1587072119.607,-395.020,-37.598,-614.746,-28.320,0.000
1587072119.611,53.223,-27.832,-438.477,-41.504,0.000
1587072119.615,361.328,-25.879,-365.723,-59.570,0.000
1587072119.619,-36.133,-35.156,-575.195,-17.578,0.000
1587072119.623,-418.457,-32.715,-539.062,7.324,0.000
1587072119.627,-95.703,-28.320,-390.137,-19.531,0.000
1587072119.630,355.469,-28.809,-407.227,-37.109,0.000
1587072119.634,119.629,-32.227,-479.980,-38.086,0.000
1587072119.638,-372.559,-33.203,-480.469,-16.602,0.000
1587072119.642,-241.211,-34.180,-491.211,-26.855,0.000
1587072119.646,267.578,-34.668,-361.328,-70.801,0.000
1587072119.650,221.680,-33.691,-327.148,-49.805,0.000
1587072119.654,-301.758,-39.551,-546.875,-7.324,0.000
1587072119.658,-350.098,-39.551,-536.133,-19.043,0.000
1587072119.662,152.344,-38.086,-521.484,-62.988,0.000
1587072119.666,323.730,-37.598,-499.023,-68.359,0.000
1587072119.670,-142.090,-33.691,-391.602,-31.738,0.000
1587072119.673,-402.832,-38.574,-523.438,-8.301,0.000
1587072119.677,9.766,-40.527,-459.473,-48.828,0.000
1587072119.681,345.703,-31.250,-289.551,-85.449,0.000
1587072119.685,2.930,-31.738,-352.051,-20.508,0.000
1587072119.689,-413.574,-43.945,-534.668,6.836,0.000
1587072119.693,-139.160,-41.992,-453.125,-53.223,0.000
1587072119.697,324.707,-38.574,-296.875,-81.055,0.000
1587072119.701,139.160,-47.363,-409.180,-56.152,0.000
1587072119.705,-365.234,-53.223,-613.281,-9.766,0.000
1587072119.709,-291.504,-52.734,-630.371,-19.043,0.000
1587072119.712,233.887,-42.480,-337.891,-71.289,0.000
1587072119.716,250.977,-33.691,-269.043,-64.941,0.000
1587072119.720,-256.836,-44.434,-525.391,-15.625,0.000
1587072119.724,-366.699,-51.758,-631.836,-11.719,0.000
1587072119.728,111.816,-38.574,-376.465,-34.668,0.000
1587072119.732,323.242,-34.668,-269.531,-51.270,0.000
1587072119.736,-110.352,-44.434,-444.824,-26.367,0.000
1587072119.740,-425.293,-45.410,-528.320,-3.906,0.000
1587072119.744,-29.785,-39.062,-433.594,-54.688,0.000
1587072119.748,349.609,-34.668,-345.215,-72.754,0.000
1587072119.752,37.598,-44.434,-562.012,-23.926,0.000
1587072119.755,-408.203,-58.105,-694.824,3.906,0.000
1587072119.759,-186.035,-51.270,-416.504,-30.273,0.000
1587072119.763,312.500,-43.945,-319.824,-48.828,0.000
1587072119.767,181.641,-47.363,-368.652,-41.992,0.000
1587072119.771,-332.031,-54.688,-464.844,-11.230,0.000
1587072119.775,-305.176,-52.734,-459.473,-12.695,0.000
1587072119.779,225.098,-46.875,-349.121,-74.707,0.000
1587072119.783,296.387,-47.852,-353.516,-62.988,0.000
1587072119.787,-218.262,-49.316,-456.055,-5.859,0.000
1587072119.791,-381.348,-50.293,-508.301,-9.766,0.000
1587072119.795,94.727,-48.828,-447.754,-61.035,0.000
1587072119.798,354.492,-48.828,-426.758,-71.777,0.000
1587072119.802,-59.082,-46.875,-415.527,-34.668,0.000
1587072119.806,-402.344,-48.828,-452.148,-19.043,0.000
1587072119.810,-61.523,-49.805,-467.773,-48.828,0.000
1587072119.814,356.934,-45.410,-348.633,-52.734,0.000
1587072119.818,83.496,-44.434,-396.484,-19.531,0.000
1587072119.822,-395.996,-47.852,-596.191,14.160,0.000
1587072119.826,-197.754,-46.875,-536.133,-22.949,0.000
1587072119.830,307.129,-35.156,-347.656,-72.754,0.000
1587072119.834,211.914,-28.320,-294.922,-36.621,0.000
1587072119.837,-296.875,-38.086,-481.445,-8.789,0.000
1587072119.841,-319.824,-51.270,-654.297,-7.324,0.000
1587072119.845,196.777,-43.457,-478.027,-47.852,0.000
1587072119.849,311.035,-37.598,-251.953,-71.289,0.000
1587072119.853,-168.945,-44.922,-427.734,-4.883,0.000
1587072119.857,-383.789,-47.363,-619.141,7.324,0.000
1587072119.861,44.922,-42.480,-428.711,-62.988,0.000
1587072119.865,357.422,-37.109,-270.996,-78.125,0.000
1587072119.869,-16.113,-47.852,-451.660,-30.273,0.000
1587072119.873,-422.363,-58.594,-594.238,-11.230,0.000
1587072119.877,-114.258,-56.152,-464.355,-32.715,0.000
1587072119.880,339.355,-55.664,-394.531,-51.270,0.000
1587072119.884,103.027,-62.988,-495.117,-18.555,0.000
1587072119.888,-386.230,-72.266,-616.211,12.695,0.000
1587072119.892,-251.465,-71.777,-516.113,-13.672,0.000
1587072119.896,272.949,-62.988,-306.641,-56.152,0.000
1587072119.900,223.145,-68.359,-437.012,-50.781,0.000
1587072119.904,-298.828,-79.102,-636.719,-6.836,0.000
1587072119.908,-361.328,-74.707,-512.207,-4.395,0.000
1587072119.912,136.719,-68.359,-428.223,-33.203,0.000
1587072119.916,317.383,-63.965,-452.148,-47.852,0.000
1587072119.920,-154.785,-61.523,-511.719,-15.137,0.000
1587072119.923,-421.387,-61.523,-493.652,-4.395,0.000
1587072119.927,-1.953,-60.059,-393.555,-22.949,0.000
1587072119.931,341.797,-57.129,-374.023,-28.320,0.000
1587072119.935,-1.465,-60.059,-533.203,-6.836,0.000
1587072119.939,-397.949,-61.523,-606.445,4.395,0.000
1587072119.943,-130.859,-54.199,-494.629,-24.902,0.000
1587072119.947,316.406,-52.246,-393.066,-48.340,0.000
1587072119.951,144.043,-57.129,-358.887,-37.598,0.000
1587072119.955,-354.004,-60.547,-484.375,-17.578,0.000
1587072119.959,-270.020,-58.105,-491.211,-18.066,0.000
1587072119.962,248.047,-58.105,-490.723,-40.527,0.000
1587072119.966,261.719,-49.805,-443.848,-48.828,0.000
1587072119.970,-246.094,-45.410,-392.090,-6.836,0.000
1587072119.974,-372.070,-51.758,-537.109,-7.324,0.000
1587072119.978,109.863,-46.875,-456.055,-59.082,0.000
1587072119.982,327.148,-46.875,-371.094,-55.176,0.000
1587072119.986,-105.469,-47.363,-441.895,-10.742,0.000
1587072119.990,-409.180,-49.805,-578.613,4.883,0.000
1587072119.994,-40.527,-52.246,-597.656,-11.719,0.000
1587072119.998,340.332,-42.969,-381.836,-30.762,0.000
1587072120.002,34.180,-46.387,-401.367,-10.254,0.000
1587072120.005,-407.227,-59.082,-629.395,10.742,0.000
1587072120.009,-179.199,-56.152,-543.945,0.488,0.000
1587072120.013,316.406,-47.363,-262.207,-30.273,0.000
1587072120.017,181.641,-52.246,-364.746,-45.898,0.000
1587072120.021,-338.867,-55.664,-534.180,-8.301,0.000
1587072120.025,-301.270,-51.758,-508.301,-7.812,0.000
1587072120.029,229.980,-47.363,-428.711,-41.504,0.000
1587072120.033,280.273,-45.898,-360.840,-44.434,0.000
1587072120.037,-239.258,-58.105,-602.051,1.465,0.000
1587072120.041,-403.320,-58.594,-677.246,-0.977,0.000
1587072120.045,76.172,-42.969,-324.219,-38.086,0.000
1587072120.048,340.332,-42.480,-312.012,-53.223,0.000
1587072120.052,-80.078,-51.270,-483.398,-2.930,0.000
1587072120.056,-418.457,-53.711,-571.289,23.926,0.000
1587072120.060,-58.105,-47.363,-447.266,-46.387,0.000
1587072120.064,351.074,-41.016,-338.867,-58.105,0.000
1587072120.068,71.289,-43.945,-437.012,-29.785,0.000
1587072120.072,-395.996,-51.270,-541.504,-7.324,0.000
1587072120.076,-218.262,-52.734,-556.152,-24.414,0.000
1587072120.080,282.227,-44.922,-444.824,-63.965,0.000
1587072120.084,193.359,-45.410,-479.980,-47.852,0.000
1587072120.087,-333.984,-51.758,-508.789,-14.160,0.000
1587072120.091,-339.355,-51.270,-456.543,-21.973,0.000
1587072120.095,179.199,-49.316,-436.035,-53.223,0.000
1587072120.099,284.668,-50.293,-483.887,-43.457,0.000
1587072120.103,-202.637,-53.711,-507.324,-5.371,0.000
1587072120.107,-411.621,-53.223,-482.910,0.488,0.000
1587072120.111,55.664,-49.316,-486.816,-41.016,0.000
1587072120.115,348.145,-42.480,-472.656,-69.824,0.000
1587072120.119,-44.922,-41.992,-469.727,-31.738,0.000
1587072120.123,-419.922,-51.270,-573.242,-13.184,0.000
1587072120.127,-126.953,-54.688,-650.879,-41.504,0.000
1587072120.130,324.707,-46.875,-547.363,-62.012,0.000
1587072120.134,111.816,-39.062,-372.559,-41.016,0.000
1587072120.138,-389.160,-45.898,-517.090,-1.465,0.000
1587072120.142,-250.977,-46.875,-523.438,-23.438,0.000
1587072120.146,284.180,-42.480,-300.293,-53.711,0.000
1587072120.150,251.465,-40.527,-296.387,-42.480,0.000
1587072120.154,-289.551,-41.992,-519.531,-24.414,0.000
1587072120.158,-353.027,-49.316,-551.270,-15.137,0.000
1587072120.162,165.039,-40.527,-368.164,-52.734,0.000
1587072120.166,322.266,-35.645,-346.680,-51.758,0.000
1587072120.170,-146.484,-48.828,-559.570,0.488,0.000
1587072120.173,-411.133,-59.082,-724.121,18.555,0.000
1587072120.177,12.695,-47.363,-482.422,-19.531,0.000
1587072120.181,353.027,-33.203,-264.648,-54.688,0.000
1587072120.185,-2.930,-41.016,-456.543,-18.555,0.000
1587072120.189,-404.785,-49.805,-604.980,39.062,0.000
1587072120.193,-142.090,-47.852,-480.469,-10.254,0.000
1587072120.197,317.383,-43.457,-334.473,-75.195,0.000
1587072120.201,146.973,-44.922,-383.789,-34.180,0.000
1587072120.205,-363.281,-49.805,-533.203,5.859,0.000
1587072120.209,-246.582,-50.293,-467.773,-13.672,0.000
1587072120.212,260.254,-43.945,-343.750,-57.129,0.000
1587072120.216,228.027,-44.434,-466.309,-53.223,0.000
1587072120.220,-253.418,-52.246,-621.582,0.977,0.000
1587072120.224,-366.211,-50.293,-504.395,-6.348,0.000
1587072120.228,130.371,-47.363,-373.535,-41.504,0.000
1587072120.232,336.426,-50.781,-466.309,-27.344,0.000
1587072120.236,-118.652,-47.852,-536.133,-0.977,0.000
1587072120.240,-413.574,-38.574,-492.188,-7.324,0.000
1587072120.244,-20.508,-38.574,-459.961,-50.781,0.000
1587072120.248,359.863,-41.016,-398.438,-76.172,0.000
1587072120.252,21.484,-37.109,-421.387,-39.062,0.000
1587072120.255,-425.781,-40.527,-515.625,0.977,0.000
1587072120.259,-176.270,-52.734,-511.719,-14.160,0.000
1587072120.263,301.758,-57.617,-421.387,-59.570,0.000
1587072120.267,171.387,-53.223,-399.414,-37.109,0.000
1587072120.271,-331.543,-52.246,-494.629,22.461,0.000
1587072120.275,-299.805,-57.129,-583.008,-9.277,0.000
1587072120.279,234.375,-55.664,-515.137,-67.871,0.000
1587072120.283,288.086,-44.922,-334.961,-66.406,0.000
1587072120.287,-227.051,-43.457,-500.488,-10.742,0.000
1587072120.291,-369.629,-50.781,-674.805,4.395,0.000
1587072120.295,89.355,-46.875,-498.535,-56.152,0.000
1587072120.298,317.383,-41.016,-309.570,-75.684,0.000
1587072120.302,-125.488,-49.805,-429.199,-29.785,0.000
1587072120.306,-408.691,-61.035,-575.195,-25.391,0.000
1587072120.310,-29.785,-68.359,-545.410,-69.336,0.000
1587072120.314,290.527,-62.500,-380.371,-69.336,0.000
1587072120.318,12.695,-63.477,-351.074,-48.340,0.000
1587072120.322,-454.590,-80.566,-696.777,-49.805,0.000
1587072120.326,-270.020,-78.125,-684.082,-62.012,0.000
1587072120.330,216.797,-64.941,-298.828,-101.562,0.000
1587072120.334,125.488,-64.453,-351.074,-90.820,0.000
1587072120.337,-375.488,-69.336,-550.781,-43.945,0.000
1587072120.341,-381.348,-72.266,-505.859,-50.781,0.000
1587072120.345,133.789,-65.918,-321.777,-94.727,0.000
1587072120.349,256.836,-66.406,-333.496,-79.590,0.000
1587072120.353,-229.980,-72.754,-540.039,-26.855,0.000
1587072120.357,-430.176,-71.289,-637.695,-14.160,0.000
1587072120.361,20.996,-63.477,-421.387,-36.133,0.000
1587072120.365,318.848,-56.641,-362.305,-74.219,0.000
1587072120.369,-59.082,-62.012,-601.074,-43.457,0.000
1587072120.373,-441.895,-65.430,-538.574,-16.602,0.000
1587072120.377,-115.723,-60.059,-390.137,-49.805,0.000
1587072120.380,330.078,-52.246,-413.574,-70.312,0.000
1587072120.384,95.703,-56.152,-486.328,-42.480,0.000
1587072120.388,-376.953,-59.082,-486.328,-4.883,0.000
1587072120.392,-234.375,-57.617,-477.051,-28.320,0.000
1587072120.396,268.555,-56.152,-350.098,-55.664,0.000
1587072120.400,216.797,-51.270,-348.633,-30.762,0.000
1587072120.404,-301.758,-52.734,-579.590,-11.230,0.000
1587072120.408,-352.539,-53.711,-568.359,-21.973,0.000
1587072120.412,158.203,-55.176,-539.551,-45.410,0.000
1587072120.416,322.266,-51.758,-489.746,-39.551,0.000
1587072120.420,-156.738,-46.387,-359.863,-12.207,0.000
1587072120.423,-399.414,-51.270,-495.605,-4.395,0.000
1587072120.427,28.320,-47.363,-448.730,-27.344,0.000
1587072120.431,363.770,-41.016,-278.320,-50.293,0.000
1587072120.435,14.648,-43.457,-341.797,-19.043,0.000
1587072120.439,-409.668,-50.781,-508.789,23.438,0.000
1587072120.443,-113.281,-50.781,-463.867,-21.973,0.000
1587072120.447,356.445,-44.434,-304.199,-57.617,0.000
1587072120.451,148.926,-48.828,-395.020,-20.508,0.000
1587072120.455,-346.680,-54.199,-585.938,8.789,0.000
1587072120.459,-258.301,-53.223,-597.656,-4.883,0.000
1587072120.462,261.719,-40.527,-317.383,-51.270,0.000
1587072120.466,279.297,-34.180,-254.395,-38.574,0.000
1587072120.470,-233.398,-45.898,-539.551,9.766,0.000
1587072120.474,-346.191,-51.758,-623.047,-5.859,0.000
1587072120.478,130.371,-41.992,-351.562,-43.945,0.000
1587072120.482,331.543,-31.738,-247.070,-41.504,0.000
1587072120.486,-105.957,-37.109,-446.289,-6.836,0.000
1587072120.490,-401.855,-40.039,-515.137,18.555,0.000
1587072120.494,-13.672,-31.738,-412.109,-12.695,0.000
1587072120.498,366.699,-30.273,-338.379,-38.086,0.000
1587072120.502,50.293,-37.109,-552.734,-8.789,0.000
1587072120.505,-393.555,-41.504,-695.312,23.438,0.000
1587072120.509,-155.762,-33.203,-380.859,3.906,0.000
1587072120.513,344.727,-26.855,-266.602,-46.875,0.000
1587072120.517,213.379,-31.738,-404.785,-30.762,0.000
1587072120.521,-330.078,-36.133,-481.445,14.648,0.000
1587072120.525,-303.223,-31.250,-445.312,-5.371,0.000
1587072120.529,215.820,-33.691,-364.258,-54.688,0.000
1587072120.533,271.973,-32.715,-345.215,-54.688,0.000
1587072120.537,-214.844,-33.691,-420.898,-3.906,0.000
1587072120.541,-376.465,-40.039,-474.609,-17.578,0.000
1587072120.545,77.148,-41.504,-457.520,-69.824,0.000
1587072120.548,346.191,-38.086,-433.105,-51.270,0.000
1587072120.552,-52.246,-34.180,-394.043,6.836,0.000
1587072120.556,-412.109,-38.086,-438.477,8.789,0.000
1587072120.560,-63.477,-41.992,-467.285,-31.738,0.000
1587072120.564,349.121,-34.180,-363.770,-59.570,0.000
1587072120.568,61.035,-35.156,-364.258,-46.875,0.000
1587072120.572,-411.133,-49.316,-509.766,-20.020,0.000
1587072120.576,-241.699,-49.805,-485.352,-49.316,0.000
1587072120.580,253.906,-43.457,-338.379,-88.379,0.000
1587072120.584,175.293,-46.875,-319.336,-70.801,0.000
1587072120.587,-337.891,-52.734,-501.465,-42.480,0.000
1587072120.591,-374.512,-50.293,-633.789,-46.875,0.000
1587072120.595,152.344,-40.039,-466.797,-73.730,0.000
1587072120.599,282.227,-32.227,-264.648,-60.547,0.000
1587072120.603,-226.074,-40.527,-440.918,-20.508,0.000
1587072120.607,-431.641,-44.434,-574.707,-34.668,0.000
1587072120.611,50.293,-31.250,-389.648,-48.828,0.000
1587072120.615,338.867,-23.926,-220.215,-63.477,0.000
1587072120.619,-54.199,-33.691,-379.395,-54.688,0.000
1587072120.623,-413.574,-42.969,-555.176,-30.762,0.000
1587072120.627,-113.770,-38.086,-411.133,-47.363,0.000
1587072120.630,328.613,-29.297,-252.441,-73.242,0.000
1587072120.634,116.211,-32.715,-377.441,-49.316,0.000
1587072120.638,-362.793,-40.527,-565.430,-3.906,0.000
1587072120.642,-247.070,-41.504,-489.746,-13.184,0.000
1587072120.646,256.348,-37.109,-335.938,-69.824,0.000
1587072120.650,229.004,-33.691,-426.270,-76.660,0.000
1587072120.654,-281.250,-38.086,-624.512,-6.348,0.000
1587072120.658,-341.309,-33.691,-499.023,-11.230,0.000
1587072120.662,160.156,-30.273,-344.727,-60.059,0.000
1587072120.666,330.078,-33.691,-402.832,-25.879,0.000
1587072120.670,-132.324,-33.203,-478.516,-6.836,0.000
1587072120.673,-387.207,-32.715,-457.031,-26.855,0.000
1587072120.677,22.949,-27.344,-349.121,-55.176,0.000
1587072120.681,329.102,-28.809,-320.312,-68.359,0.000
1587072120.685,-22.949,-31.250,-477.051,-12.695,0.000
1587072120.689,-398.926,-29.785,-545.410,16.113,0.000
1587072120.693,-118.652,-23.438,-380.371,-38.574,0.000
1587072120.697,336.914,-32.227,-418.945,-66.406,0.000
1587072120.701,152.344,-38.086,-504.883,-41.016,0.000
1587072120.705,-339.844,-31.250,-476.562,-16.602,0.000
1587072120.709,-276.855,-32.715,-504.883,-37.598,0.000
1587072120.712,229.492,-29.785,-342.285,-69.336,0.000
1587072120.716,261.230,-29.297,-270.996,-59.082,0.000
1587072120.720,-238.281,-33.691,-419.434,-17.090,0.000
1587072120.724,-364.258,-41.992,-503.906,-22.949,0.000
1587072120.728,99.609,-38.086,-378.418,-72.754,0.000
1587072120.732,308.594,-29.297,-358.398,-74.219,0.000
1587072120.736,-125.977,-31.738,-440.918,-24.414,0.000
1587072120.740,-419.434,-34.668,-544.434,-4.883,0.000
1587072120.744,-23.926,-33.691,-545.898,-46.387,0.000
1587072120.748,345.703,-28.809,-275.879,-76.660,0.000
1587072120.752,31.250,-28.809,-296.875,-58.105,0.000
1587072120.755,-401.855,-36.621,-575.195,-3.906,0.000
1587072120.759,-178.711,-38.086,-541.504,-23.926,0.000
1587072120.763,287.598,-28.320,-319.824,-79.102,0.000
1587072120.767,170.410,-34.180,-368.652,-49.805,0.000
1587072120.771,-311.523,-33.691,-491.699,21.484,0.000
1587072120.775,-290.039,-24.414,-484.375,22.461,0.000
1587072120.779,220.215,-22.461,-378.906,-46.875,0.000
1587072120.783,290.527,-20.020,-337.891,-51.758,0.000
1587072120.787,-211.426,-23.926,-587.402,20.508,0.000
1587072120.791,-335.938,-21.973,-682.129,37.598,0.000
1587072120.795,133.301,-9.766,-307.129,-13.184,0.000
1587072120.798,361.816,-11.230,-294.922,-35.645,0.000
1587072120.802,-45.410,-16.602,-467.773,-10.254,0.000
1587072120.806,-397.461,-23.926,-467.773,11.230,0.000
1587072120.810,-41.016,-21.973,-349.121,-37.109,0.000
1587072120.814,369.141,-14.648,-270.996,-54.688,0.000
1587072120.818,93.750,-19.531,-385.254,-10.742,0.000
1587072120.822,-367.188,-27.344,-524.902,26.367,0.000
1587072120.826,-189.453,-33.691,-508.301,-6.348,0.000
1587072120.830,317.871,-34.180,-390.137,-63.477,0.000
1587072120.834,243.652,-34.180,-427.734,-26.855,0.000
1587072120.837,-294.434,-35.645,-500.977,23.438,0.000
1587072120.841,-320.312,-34.180,-454.590,-1.953,0.000
1587072120.845,205.566,-32.227,-386.719,-37.109,0.000
1587072120.849,324.707,-30.762,-438.965,-25.879,0.000
1587072120.853,-171.387,-30.762,-460.938,10.254,0.000
1587072120.857,-382.812,-31.738,-492.188,0.488,0.000
1587072120.861,69.824,-30.762,-444.824,-52.246,0.000
1587072120.865,358.887,-29.785,-327.637,-71.777,0.000
1587072120.869,-28.320,-35.645,-413.086,-1.953,0.000
1587072120.873,-403.809,-43.945,-565.430,35.645,0.000
1587072120.877,-91.797,-47.363,-633.789,-25.391,0.000
1587072120.880,359.863,-40.527,-559.570,-65.918,0.000
1587072120.884,124.023,-28.320,-358.398,-46.387,0.000
1587072120.888,-381.348,-33.203,-485.352,-13.672,0.000
1587072120.892,-234.375,-38.574,-513.184,-22.461,0.000
1587072120.896,299.316,-28.320,-265.625,-60.059,0.000
1587072120.900,251.465,-27.344,-241.211,-55.664,0.000
1587072120.904,-278.809,-36.621,-462.891,-14.648,0.000
1587072120.908,-326.660,-36.133,-530.273,-2.930,0.000
1587072120.912,188.965,-26.367,-313.965,-53.711,0.000
1587072120.916,311.523,-24.902,-265.137,-65.430,0.000
1587072120.920,-173.340,-35.645,-518.066,-3.906,0.000
1587072120.923,-373.047,-37.109,-619.629,0.977,0.000
1587072120.927,43.457,-29.785,-388.184,-57.129,0.000
1587072120.931,365.723,-25.879,-250.488,-81.543,0.000
1587072120.935,12.207,-33.691,-428.711,-40.527,0.000
1587072120.939,-401.855,-39.062,-598.633,-14.648,0.000
1587072120.943,-133.789,-33.203,-478.516,-47.852,0.000
1587072120.947,332.520,-28.320,-337.402,-98.633,0.000
1587072120.951,158.691,-31.250,-419.434,-53.223,0.000
1587072120.955,-341.797,-33.203,-566.406,-6.348,0.000
1587072120.959,-255.371,-30.273,-456.543,-21.484,0.000
1587072120.962,272.949,-28.809,-289.062,-63.965,0.000
1587072120.966,261.719,-38.574,-493.652,-55.176,0.000
1587072120.970,-261.230,-48.828,-630.859,6.836,0.000
1587072120.974,-359.375,-41.504,-437.988,-11.719,0.000
1587072120.978,133.301,-34.180,-354.980,-58.105,0.000
1587072120.982,349.121,-30.762,-367.676,-60.547,0.000
1587072120.986,-86.914,-32.227,-424.316,-25.879,0.000
1587072120.990,-403.809,-34.180,-459.473,-0.977,0.000
1587072120.994,-28.320,-31.738,-407.227,-43.457,0.000
1587072120.998,358.887,-30.273,-385.742,-73.242,0.000
1587072121.002,44.922,-30.762,-429.199,-35.645,0.000
1587072121.005,-373.047,-31.250,-467.773,1.465,0.000
1587072121.009,-167.969,-32.227,-461.426,-25.879,0.000
1587072121.013,283.691,-35.645,-394.043,-69.824,0.000
1587072121.017,167.480,-36.133,-371.582,-50.781,0.000
1587072121.021,-337.891,-36.621,-431.641,-15.137,0.000
1587072121.025,-300.293,-43.457,-500.977,-9.277,0.000
1587072121.029,213.867,-49.316,-418.457,-62.988,0.000
1587072121.033,268.555,-44.434,-283.203,-81.055,0.000
1587072121.037,-246.582,-56.152,-457.520,-25.391,0.000
1587072121.041,-398.926,-66.895,-597.656,-23.926,0.000
1587072121.045,59.570,-54.199,-443.359,-63.477,0.000
1587072121.048,315.918,-41.504,-246.582,-69.824,0.000
1587072121.052,-89.844,-42.969,-357.422,-48.340,0.000
1587072121.056,-441.406,-48.828,-528.809,-28.320,0.000
1587072121.060,-81.055,-47.852,-473.633,-45.410,0.000
1587072121.064,334.961,-43.945,-361.328,-69.336,0.000
1587072121.068,62.988,-44.434,-398.438,-47.852,0.000
1587072121.072,-416.016,-52.246,-662.598,0.488,0.000
1587072121.076,-236.328,-54.688,-625.488,-17.090,0.000
1587072121.080,286.621,-38.574,-230.957,-78.125,0.000
1587072121.084,208.008,-37.598,-306.641,-44.434,0.000
1587072121.087,-320.801,-42.969,-488.281,-2.930,0.000
1587072121.091,-330.566,-42.480,-425.293,-12.695,0.000
1587072121.095,196.289,-40.527,-286.133,-35.645,0.000
1587072121.099,301.270,-36.133,-270.020,-39.062,0.000
1587072121.103,-172.363,-39.062,-475.586,-4.883,0.000
1587072121.107,-380.371,-43.945,-576.172,3.418,0.000
1587072121.111,46.875,-38.086,-355.469,-37.109,0.000
1587072121.115,353.027,-35.156,-280.762,-64.453,0.000
1587072121.119,-20.996,-42.969,-525.391,-32.227,0.000
1587072121.123,-410.156,-45.410,-519.043,2.441,0.000
1587072121.127,-96.191,-39.551,-335.938,-34.668,0.000
1587072121.130,352.539,-35.156,-362.305,-73.242,0.000
1587072121.134,133.301,-36.621,-455.566,-28.809,0.000
1587072121.138,-373.047,-40.527,-395.996,12.695,0.000
1587072121.142,-246.582,-41.016,-408.691,-14.648,0.000
1587072121.146,272.949,-34.668,-314.453,-56.641,0.000
1587072121.150,237.305,-30.273,-327.148,-26.367,0.000
1587072121.154,-274.414,-34.668,-515.137,20.996,0.000
1587072121.158,-331.543,-35.156,-478.027,-2.930,0.000
1587072121.162,166.504,-31.250,-508.301,-44.922,0.000
1587072121.166,309.570,-33.203,-492.676,-40.527,0.000
1587072121.170,-162.598,-33.691,-358.887,-13.184,0.000
1587072121.173,-401.855,-34.668,-503.418,-10.742,0.000
1587072121.177,25.879,-32.227,-448.730,-12.207,0.000
1587072121.181,354.004,-29.785,-246.094,-34.180,0.000
1587072121.185,1.465,-32.715,-318.848,-30.273,0.000
1587072121.189,-414.062,-37.109,-502.441,35.645,0.000
1587072121.193,-116.699,-35.156,-464.844,13.672,0.000
1587072121.197,353.516,-29.785,-330.566,-64.453,0.000
1587072121.201,143.555,-29.297,-390.625,-34.180,0.000
1587072121.205,-358.887,-35.156,-573.242,18.555,0.000
1587072121.209,-266.602,-38.086,-608.887,-2.441,0.000
1587072121.212,261.230,-25.879,-343.750,-59.570,0.000
1587072121.216,267.578,-19.043,-249.023,-44.434,0.000
1587072121.220,-235.352,-23.926,-477.539,13.672,0.000
1587072121.224,-339.844,-32.227,-590.820,16.113,0.000
1587072121.228,124.023,-28.320,-351.562,-39.551,0.000
1587072121.232,326.172,-23.438,-249.512,-40.527,0.000
1587072121.236,-124.023,-34.668,-449.219,5.859,0.000
1587072121.240,-413.086,-37.109,-507.812,10.254,0.000
1587072121.244,-14.648,-28.809,-407.715,-29.297,0.000
1587072121.248,343.750,-30.273,-361.816,-65.430,0.000
1587072121.252,38.574,-40.527,-558.105,-28.320,0.000
1587072121.255,-384.277,-44.434,-672.363,6.836,0.000
1587072121.259,-171.387,-35.645,-379.883,-35.156,0.000
1587072121.263,311.523,-27.832,-283.203,-62.988,0.000
1587072121.267,181.152,-28.809,-414.551,-21.973,0.000
1587072121.271,-331.543,-32.715,-536.133,7.324,0.000
1587072121.275,-289.062,-32.227,-458.008,-15.625,0.000
1587072121.279,231.445,-31.738,-316.895,-58.594,0.000
1587072121.283,294.922,-30.273,-321.289,-62.500,0.000
1587072121.287,-220.215,-30.273,-408.691,-8.301,0.000
1587072121.291,-364.746,-27.344,-474.121,7.324,0.000
1587072121.295,126.953,-28.320,-430.176,-41.504,0.000
1587072121.298,346.680,-32.715,-431.152,-45.410,0.000
1587072121.302,-89.355,-33.203,-441.895,-1.953,0.000
1587072121.306,-428.223,-34.180,-424.805,15.625,0.000
1587072121.310,-72.754,-36.621,-450.195,-22.949,0.000
1587072121.314,338.379,-30.273,-365.234,-65.430,0.000
1587072121.318,73.242,-28.320,-378.418,-25.391,0.000
1587072121.322,-379.883,-32.227,-511.719,20.996,0.000
1587072121.326,-206.055,-26.367,-479.980,-3.906,0.000
1587072121.330,306.641,-22.949,-393.555,-50.293,0.000
1587072121.334,230.957,-25.391,-324.219,-36.621,0.000
1587072121.337,-309.570,-26.855,-424.805,20.020,0.000
1587072121.341,-321.289,-30.762,-601.562,21.973,0.000
1587072121.345,200.684,-28.320,-470.215,-48.340,0.000
1587072121.349,315.430,-21.484,-250.488,-55.176,0.000
1587072121.353,-169.434,-23.438,-448.730,4.395,0.000
1587072121.357,-392.090,-29.785,-576.172,11.230,0.000
1587072121.361,52.246,-28.809,-394.531,-28.320,0.000
1587072121.365,359.375,-27.344,-244.629,-50.781,0.000
1587072121.369,-13.672,-32.715,-408.203,-26.367,0.000
1587072121.373,-397.461,-31.250,-556.641,20.996,0.000
1587072121.377,-86.426,-26.855,-391.602,-5.859,0.000
1587072121.380,366.699,-19.043,-256.836,-65.430,0.000
1587072121.384,105.957,-21.484,-368.652,-36.133,0.000
1587072121.388,-384.277,-32.715,-571.777,23.926,0.000
1587072121.392,-229.980,-28.320,-497.559,14.160,0.000
1587072121.396,276.367,-22.461,-249.023,-53.711,0.000
1587072121.400,246.094,-21.484,-333.496,-36.621,0.000
1587072121.404,-274.414,-26.367,-559.570,30.273,0.000
1587072121.408,-335.449,-24.902,-447.266,-2.441,0.000
1587072121.412,175.781,-16.602,-312.988,-60.059,0.000
1587072121.416,332.031,-19.043,-386.230,-54.199,0.000
1587072121.420,-135.742,-25.879,-483.398,-14.648,0.000
1587072121.423,-413.574,-26.855,-431.641,1.953,0.000
1587072121.427,12.695,-23.926,-367.188,-30.762,0.000
1587072121.431,360.840,-22.949,-328.125,-80.566,0.000
1587072121.435,25.879,-22.949,-460.449,-8.301,0.000
1587072121.439,-386.230,-21.973,-527.832,39.062,0.000
1587072121.443,-157.227,-17.090,-361.328,-61.035,0.000
1587072121.447,306.152,-15.625,-467.773,-111.328,0.000
1587072121.451,133.789,-15.625,-538.574,-79.590,0.000
1587072121.455,-379.395,-13.184,-406.738,-50.293,0.000
1587072121.459,-304.199,-11.230,-456.055,-60.547,0.000
1587072121.462,222.656,-6.348,-365.234,-124.023,0.000
1587072121.466,224.121,-5.859,-296.875,-132.812,0.000
1587072121.470,-316.895,-12.695,-485.840,-78.125,0.000
1587072121.474,-419.922,-17.090,-565.430,-55.176,0.000
1587072121.478,83.984,-8.789,-388.184,-127.930,0.000
1587072121.482,270.020,-6.348,-348.633,-176.270,0.000
1587072121.486,-185.059,-10.254,-451.172,-106.934,0.000
1587072121.490,-484.863,-17.090,-553.711,-74.707,0.000
1587072121.494,-91.797,-22.949,-524.414,-126.465,0.000
1587072121.498,299.805,-12.207,-249.512,-158.691,0.000
1587072121.502,-27.344,-11.719,-254.395,-117.676,0.000
1587072121.505,-474.121,-23.926,-560.547,-63.477,0.000
1587072121.509,-232.422,-19.043,-540.039,-83.008,0.000
1587072121.513,270.508,-9.277,-190.918,-140.625,0.000
1587072121.517,132.812,-9.277,-200.684,-107.422,0.000
1587072121.521,-396.484,-13.672,-437.500,-45.410,0.000
1587072121.525,-347.656,-11.230,-473.633,-66.895,0.000
1587072121.529,187.988,-3.906,-339.355,-125.488,0.000
1587072121.533,249.023,-3.906,-267.090,-122.070,0.000
1587072121.537,-260.742,-13.184,-573.242,-38.086,0.000
1587072121.541,-430.176,-15.625,-645.996,-16.602,0.000
1587072121.545,55.664,-3.418,-296.875,-84.473,0.000
1587072121.548,329.102,-0.488,-245.605,-112.793,0.000
1587072121.552,-93.750,-4.883,-380.371,-60.059,0.000
1587072121.556,-427.246,-13.184,-437.988,-16.113,0.000
1587072121.560,-62.012,-12.207,-311.523,-52.734,0.000
1587072121.564,344.238,-5.859,-263.672,-93.262,0.000
1587072121.568,58.105,-10.742,-378.418,-56.152,0.000
1587072121.572,-410.645,-11.719,-461.426,8.301,0.000
1587072121.576,-193.359,-9.766,-444.824,-8.301,0.000
1587072121.580,300.293,-11.230,-356.445,-84.961,0.000
1587072121.584,190.918,-11.719,-408.203,-58.105,0.000
1587072121.587,-319.336,-7.324,-482.422,13.672,0.000
1587072121.591,-320.801,-2.930,-434.570,-5.371,0.000
1587072121.595,204.102,-2.441,-356.445,-76.660,0.000
1587072121.599,306.152,-5.371,-395.020,-83.496,0.000
1587072121.603,-173.828,-8.301,-417.969,-13.184,0.000
1587072121.607,-396.484,-8.789,-423.828,20.996,0.000
1587072121.611,37.598,-6.348,-372.070,-32.227,0.000
1587072121.615,359.375,-4.395,-274.414,-81.055,0.000
1587072121.619,-36.133,-5.371,-346.680,-39.062,0.000
1587072121.623,-406.250,-9.277,-513.672,8.301,0.000
1587072121.627,-76.660,-10.742,-577.148,-20.020,0.000
1587072121.630,348.633,-4.883,-433.105,-94.238,0.000
1587072121.634,133.789,-3.418,-226.562,-75.195,0.000
1587072121.638,-370.605,-11.719,-426.758,11.719,0.000
1587072121.642,-259.277,-13.672,-458.496,-5.371,0.000
1587072121.646,281.250,-7.812,-300.293,-75.195,0.000
1587072121.650,257.324,-4.883,-274.414,-52.246,0.000
1587072121.654,-273.438,-9.277,-433.105,10.742,0.000
1587072121.658,-346.680,-16.602,-494.629,25.879,0.000
1587072121.662,168.457,-5.859,-304.199,-30.762,0.000
1587072121.666,334.473,-0.488,-285.156,-62.500,0.000
1587072121.670,-122.559,-8.301,-484.375,11.719,0.000
1587072121.673,-381.348,-10.742,-554.199,43.457,0.000
1587072121.677,13.184,-2.930,-354.004,-39.062,0.000
1587072121.681,374.512,1.465,-175.781,-86.914,0.000
1587072121.685,24.902,-9.277,-386.230,-27.344,0.000
1587072121.689,-415.527,-18.066,-616.211,43.457,0.000
1587072121.693,-119.629,-9.766,-452.637,-1.465,0.000
1587072121.697,367.676,-2.441,-230.469,-81.543,0.000
1587072121.701,143.066,-6.348,-266.602,-56.152,0.000
1587072121.705,-375.977,-8.789,-513.184,19.531,0.000
1587072121.709,-272.949,-5.859,-446.289,12.695,0.000
1587072121.712,258.789,-3.418,-170.410,-68.848,0.000
1587072121.716,274.414,-10.742,-326.660,-54.199,0.000
1587072121.720,-245.117,-16.602,-588.867,23.926,0.000
1587072121.724,-367.676,-9.277,-408.203,9.277,0.000
1587072121.728,137.207,-2.930,-258.789,-57.129,0.000
1587072121.732,364.746,-2.441,-264.648,-76.660,0.000
1587072121.736,-115.723,-9.766,-355.469,-9.277,0.000
1587072121.740,-418.457,-11.719,-422.852,31.738,0.000
1587072121.744,-19.043,-6.836,-399.414,-10.254,0.000
1587072121.748,375.977,-1.953,-318.848,-58.594,0.000
1587072121.752,66.895,-3.418,-335.449,-18.555,0.000
1587072121.755,-399.414,-7.812,-431.152,45.410,0.000
1587072121.759,-141.113,-5.371,-426.758,4.883,0.000
1587072121.763,364.258,-5.371,-345.215,-62.500,0.000
1587072121.767,195.312,-12.695,-346.191,-40.039,0.000
1587072121.771,-334.473,-12.695,-424.316,32.227,0.000
1587072121.775,-282.715,-7.324,-444.336,28.320,0.000
1587072121.779,255.371,-10.742,-377.930,-34.180,0.000
1587072121.783,307.617,-11.230,-226.074,-56.641,0.000
1587072121.787,-209.473,-16.113,-346.191,27.344,0.000
1587072121.791,-376.953,-17.578,-570.801,42.480,0.000
1587072121.795,91.309,-5.859,-420.898,-39.551,0.000
1587072121.798,386.230,-1.465,-104.004,-63.477,0.000
1587072121.802,-37.598,-4.883,-218.262,-1.465,0.000
1587072121.806,-432.129,-8.301,-455.078,45.898,0.000
1587072121.810,-66.406,-13.672,-424.316,-3.906,0.000
1587072121.814,377.930,-4.395,-225.586,-65.430,0.000
1587072121.818,93.750,4.883,-221.680,-12.695,0.000
1587072121.822,-378.906,-8.789,-601.074,59.082,0.000
1587072121.826,-184.570,-13.672,-607.910,2.930,0.000
1587072121.830,303.711,-4.883,-127.930,-81.543,0.000
1587072121.834,207.520,-10.742,-169.922,-41.016,0.000
1587072121.837,-324.707,-22.949,-480.957,35.156,0.000
1587072121.841,-339.355,-21.484,-435.547,13.184,0.000
1587072121.845,202.637,-9.766,-242.188,-71.289,0.000
1587072121.849,319.824,-12.695,-227.539,-80.078,0.000
1587072121.853,-192.871,-23.926,-426.758,-13.672,0.000
1587072121.857,-410.156,-29.785,-531.250,10.254,0.000
1587072121.861,53.711,-24.902,-358.887,-62.012,0.000
1587072121.865,367.188,-14.160,-244.629,-93.750,0.000
1587072121.869,-37.109,-26.367,-466.309,-28.320,0.000
1587072121.873,-430.664,-24.414,-466.797,-3.906,0.000
1587072121.877,-99.609,-14.160,-305.664,-52.246,0.000
1587072121.880,371.582,-13.184,-318.359,-108.887,0.000
1587072121.884,127.930,-12.207,-453.125,-63.965,0.000
1587072121.888,-391.113,-16.602,-459.473,18.066,0.000
1587072121.892,-250.488,-15.625,-375.488,-9.277,0.000
1587072121.896,283.203,-15.625,-288.574,-84.473,0.000
1587072121.900,242.676,-18.066,-318.359,-82.031,0.000
1587072121.904,-307.617,-21.484,-496.094,8.789,0.000
1587072121.908,-378.906,-23.438,-513.672,10.742,0.000
1587072121.912,149.902,-23.438,-471.191,-90.332,0.000
1587072121.916,345.215,-21.973,-436.035,-76.172,0.000
1587072121.920,-150.879,-14.160,-342.773,-10.254,0.000
1587072121.923,-448.730,-19.043,-458.008,-7.812,0.000
1587072121.927,11.719,-16.602,-410.645,-61.035,0.000
1587072121.931,382.324,-8.301,-234.863,-101.562,0.000
1587072121.935,5.371,-15.625,-277.832,-46.875,0.000
1587072121.939,-433.105,-21.973,-467.773,15.625,0.000
1587072121.943,-144.531,-23.926,-439.941,-19.531,0.000
1587072121.947,346.680,-17.578,-231.445,-102.051,0.000
1587072121.951,146.973,-16.113,-312.988,-72.266,0.000
1587072121.955,-376.465,-20.996,-543.457,2.930,0.000
1587072121.959,-279.297,-25.879,-571.777,-10.254,0.000
1587072121.962,268.066,-22.949,-294.434,-89.844,0.000
1587072121.966,296.875,-17.578,-187.012,-94.727,0.000
1587072121.970,-263.184,-20.020,-475.098,1.465,0.000
1587072121.974,-414.551,-27.344,-609.863,23.926,0.000
1587072121.978,123.535,-27.832,-372.070,-43.945,0.000
1587072121.982,353.516,-19.043,-230.469,-87.402,0.000
1587072121.986,-111.328,-18.066,-438.477,-25.879,0.000
1587072121.990,-426.758,-23.926,-567.871,11.230,0.000
1587072121.994,-21.973,-19.531,-417.480,-61.523,0.000
1587072121.998,377.441,-17.090,-332.520,-113.281,0.000
1587072122.002,36.133,-23.926,-545.898,-52.246,0.000
1587072122.005,-425.293,-23.438,-678.223,14.160,0.000
1587072122.009,-166.504,-18.555,-408.203,-28.809,0.000
1587072122.013,343.262,-15.625,-285.645,-104.980,0.000
1587072122.017,201.660,-18.555,-354.980,-82.520,0.000
1587072122.021,-354.004,-21.484,-458.008,11.230,0.000
1587072122.025,-323.242,-21.973,-431.152,-2.930,0.000
1587072122.029,239.258,-25.391,-327.148,-83.984,0.000
1587072122.033,303.711,-22.461,-326.172,-94.727,0.000
1587072122.037,-239.258,-27.344,-429.688,-13.672,0.000
1587072122.041,-416.992,-26.367,-490.234,10.254,0.000
1587072122.045,88.379,-20.508,-428.711,-60.059,0.000
1587072122.048,361.816,-20.996,-408.691,-98.145,0.000
1587072122.052,-81.543,-15.137,-386.230,-27.344,0.000
1587072122.056,-421.387,-12.207,-418.457,21.484,0.000
1587072122.060,-57.129,-11.230,-450.684,-27.832,0.000
1587072122.064,357.422,-9.766,-322.754,-90.820,0.000
1587072122.068,87.891,-17.090,-341.309,-47.852,0.000
1587072122.072,-418.457,-21.484,-471.680,35.156,0.000
1587072122.076,-227.539,-22.461,-509.277,-2.930,0.000
1587072122.080,320.801,-17.578,-420.410,-77.148,0.000
1587072122.084,213.867,-18.555,-348.633,-64.453,0.000
1587072122.087,-325.195,-25.391,-504.883,14.648,0.000
1587072122.091,-339.844,-34.668,-681.152,4.883,0.000
1587072122.095,191.895,-33.691,-553.711,-74.219,0.000
1587072122.099,328.613,-25.879,-281.250,-96.191,0.000
1587072122.103,-205.566,-32.227,-463.867,-34.668,0.000
1587072122.107,-432.617,-38.574,-576.172,17.090,0.000
1587072122.111,62.012,-33.203,-424.805,-58.594,0.000
1587072122.115,386.230,-30.273,-339.355,-126.953,0.000
1587072122.119,-25.391,-34.668,-439.941,-61.035,0.000
1587072122.123,-424.316,-34.668,-552.734,1.953,0.000
1587072122.127,-81.055,-33.691,-436.523,-39.551,0.000
1587072122.130,389.160,-30.762,-287.109,-104.980,0.000
1587072122.134,137.695,-27.832,-371.582,-70.312,0.000
1587072122.138,-399.902,-37.109,-584.961,7.812,0.000
1587072122.142,-255.371,-34.668,-500.488,-18.066,0.000
1587072122.146,296.387,-27.344,-244.629,-103.027,0.000
1587072122.150,249.512,-32.715,-311.523,-113.281,0.000
1587072122.154,-310.059,-39.062,-548.340,-39.551,0.000
1587072122.158,-372.070,-37.109,-464.355,-14.160,0.000
1587072122.162,182.617,-35.156,-350.098,-92.773,0.000
1587072122.166,346.680,-35.645,-409.668,-128.906,0.000
1587072122.170,-157.227,-35.156,-481.934,-47.363,0.000
1587072122.173,-431.641,-36.621,-450.684,0.000,0.000
1587072122.177,9.277,-37.109,-420.898,-73.242,0.000
1587072122.181,380.371,-36.133,-386.719,-142.578,0.000
1587072122.185,5.859,-35.645,-460.938,-83.008,0.000
1587072122.189,-429.688,-34.668,-534.668,-28.809,0.000
1587072122.193,-137.207,-29.297,-417.480,-99.609,0.000
1587072122.197,347.656,-32.715,-479.004,-171.387,0.000
1587072122.201,169.434,-38.574,-538.574,-134.277,0.000
1587072122.205,-357.910,-36.133,-430.664,-64.453,0.000
1587072122.209,-281.738,-37.598,-457.520,-80.566,0.000
1587072122.212,274.414,-34.668,-378.418,-166.016,0.000
1587072122.216,295.898,-28.809,-336.426,-166.016,0.000
1587072122.220,-257.812,-30.273,-430.176,-70.312,0.000
1587072122.224,-372.070,-30.273,-458.008,-42.480,0.000
1587072122.228,164.551,-21.484,-387.695,-123.047,0.000
1587072122.232,384.766,-21.484,-380.859,-151.367,0.000
1587072122.236,-116.211,-32.227,-468.750,-57.129,0.000
1587072122.240,-448.730,-37.598,-537.109,-32.715,0.000
1587072122.244,-19.531,-34.180,-536.621,-117.188,0.000
1587072122.248,385.742,-25.879,-305.664,-166.992,0.000
1587072122.252,46.875,-21.973,-285.645,-104.492,0.000
1587072122.255,-420.410,-31.250,-580.566,-11.719,0.000
1587072122.259,-171.875,-30.762,-494.141,-31.250,0.000
1587072122.263,349.121,-19.531,-229.004,-97.168,0.000
1587072122.267,202.148,-21.484,-239.746,-70.801,0.000
1587072122.271,-362.305,-31.738,-468.750,16.113,0.000
1587072122.275,-304.199,-33.691,-538.086,24.902,0.000
1587072122.279,269.043,-28.809,-397.949,-68.848,0.000
1587072122.283,310.547,-24.414,-310.059,-90.820,0.000
1587072122.287,-244.629,-29.785,-577.637,-2.930,0.000
1587072122.291,-422.363,-36.621,-680.664,40.039,0.000
1587072122.295,98.145,-29.297,-378.418,-31.738,0.000
1587072122.298,361.328,-29.297,-375.488,-79.590,0.000
1587072122.302,-102.539,-30.762,-464.844,-5.859,0.000
1587072122.306,-460.449,-32.715,-452.637,49.316,0.000
1587072122.310,-72.266,-27.832,-374.512,-31.738,0.000
1587072122.314,372.070,-24.414,-313.477,-109.863,0.000
1587072122.318,65.918,-32.715,-374.023,-41.992,0.000
1587072122.322,-427.734,-36.621,-512.207,37.109,0.000
1587072122.326,-216.797,-34.180,-513.184,-8.301,0.000
1587072122.330,310.547,-31.738,-391.602,-79.102,0.000
1587072122.334,196.777,-37.109,-454.102,-56.152,0.000
1587072122.337,-355.957,-40.039,-489.746,25.879,0.000
1587072122.341,-355.957,-37.598,-424.805,29.297,0.000
1587072122.345,195.312,-37.598,-396.973,-41.992,0.000
1587072122.349,327.148,-37.109,-436.035,-67.871,0.000
1587072122.353,-198.242,-38.574,-510.254,0.488,0.000
1587072122.357,-447.754,-40.527,-503.906,46.387,0.000
1587072122.361,47.363,-38.086,-414.551,-20.508,0.000
1587072122.365,379.395,-38.574,-326.660,-85.449,0.000
1587072122.369,-50.781,-41.016,-410.645,-17.090,0.000
1587072122.373,-465.820,-44.434,-586.426,38.574,0.000
1587072122.377,-100.098,-46.875,-609.375,-9.766,0.000
1587072122.380,388.184,-40.039,-508.789,-74.707,0.000
1587072122.384,94.727,-27.344,-353.027,-64.453,0.000
1587072122.388,-437.988,-30.273,-536.621,0.000,0.000
1587072122.392,-274.414,-33.203,-569.824,-18.066,0.000
1587072122.396,282.715,-24.902,-344.238,-90.820,0.000
1587072122.400,237.793,-21.484,-323.730,-89.355,0.000
1587072122.404,-324.707,-28.320,-513.672,-14.160,0.000
1587072122.408,-395.508,-30.273,-570.801,-12.207,0.000
1587072122.412,147.949,-21.973,-424.805,-119.141,0.000
1587072122.416,328.125,-17.578,-391.602,-130.859,0.000
1587072122.420,-177.734,-29.785,-568.848,-48.828,0.000
1587072122.423,-463.379,-39.062,-704.102,-20.508,0.000
1587072122.427,-12.207,-26.855,-515.137,-81.543,0.000
1587072122.431,384.277,-17.578,-325.195,-141.113,0.000
1587072122.435,-1.465,-24.902,-480.469,-79.102,0.000
1587072122.439,-477.051,-30.762,-632.812,3.906,0.000
1587072122.443,-159.180,-31.250,-515.137,-45.898,0.000
1587072122.447,362.793,-28.320,-373.535,-125.488,0.000
1587072122.451,153.809,-31.250,-464.355,-87.402,0.000
1587072122.455,-387.207,-41.016,-625.000,-15.137,0.000
1587072122.459,-286.133,-38.086,-477.539,-22.461,0.000
1587072122.462,270.996,-37.598,-343.262,-98.145,0.000
1587072122.466,271.484,-44.922,-534.668,-96.191,0.000
1587072122.470,-283.691,-46.875,-733.887,-6.348,0.000
1587072122.474,-397.461,-45.410,-551.758,-6.348,0.000
1587072122.478,128.906,-40.527,-380.371,-66.406,0.000
1587072122.482,359.375,-37.598,-402.832,-89.844,0.000
1587072122.486,-125.977,-44.434,-500.488,-34.180,0.000
1587072122.490,-456.543,-47.852,-542.480,9.766,0.000
1587072122.494,-35.645,-45.898,-472.656,-56.641,0.000
1587072122.498,376.465,-44.922,-414.062,-105.469,0.000
1587072122.502,37.109,-46.875,-440.918,-45.410,0.000
1587072122.505,-444.824,-47.363,-548.828,20.508,0.000
1587072122.509,-181.641,-41.504,-551.270,-10.254,0.000
1587072122.513,338.867,-42.480,-478.027,-76.172,0.000
1587072122.517,186.035,-54.688,-454.590,-49.805,0.000
1587072122.521,-381.836,-51.758,-532.715,3.418,0.000
1587072122.525,-366.211,-56.641,-600.586,-35.645,0.000
1587072122.529,194.336,-70.801,-589.355,-127.930,0.000
1587072122.533,242.676,-50.781,-519.531,-147.461,0.000
1587072122.537,-319.336,-50.293,-614.258,-85.938,0.000
1587072122.541,-503.906,-65.430,-768.555,-84.473,0.000
1587072122.545,-14.648,-64.453,-627.930,-169.434,0.000
1587072122.548,236.816,-62.500,-444.336,-229.004,0.000
1587072122.552,-237.793,-70.801,-570.801,-172.852,0.000
1587072122.556,-603.027,-84.961,-711.426,-130.371,0.000
1587072122.560,-234.375,-85.449,-652.344,-215.332,0.000
1587072122.564,206.055,-75.684,-521.484,-279.297,0.000
1587072122.568,-91.797,-75.684,-509.766,-216.309,0.000
1587072122.572,-606.934,-81.543,-753.418,-138.672,0.000
1587072122.576,-391.602,-79.102,-745.117,-181.152,0.000
1587072122.580,183.594,-66.406,-396.973,-254.395,0.000
1587072122.584,93.262,-67.383,-430.664,-208.008,0.000
1587072122.587,-485.352,-80.078,-674.805,-122.070,0.000
1587072122.591,-481.445,-78.613,-640.625,-113.770,0.000
1587072122.595,97.656,-66.406,-419.922,-192.383,0.000
1587072122.599,228.027,-62.012,-411.621,-211.426,0.000
1587072122.603,-298.340,-64.453,-561.523,-115.723,0.000
1587072122.607,-520.020,-69.824,-632.324,-76.172,0.000
1587072122.611,-12.695,-66.406,-470.215,-137.695,0.000
1587072122.615,333.984,-62.012,-362.793,-174.316,0.000
1587072122.619,-87.402,-67.383,-553.711,-67.383,0.000
1587072122.623,-478.027,-62.012,-562.988,0.977,0.000
1587072122.627,-119.141,-52.734,-399.902,-64.941,0.000
1587072122.630,370.117,-55.176,-392.090,-93.262,0.000
1587072122.634,132.324,-59.082,-469.727,-32.715,0.000
1587072122.638,-396.484,-56.152,-484.863,24.414,0.000
1587072122.642,-229.004,-52.734,-460.449,13.184,0.000
1587072122.646,338.867,-51.758,-396.973,-46.387,0.000
1587072122.650,305.664,-46.387,-446.289,-22.461,0.000
1587072122.654,-255.371,-47.363,-575.195,49.805,0.000
1587072122.658,-315.430,-48.828,-542.480,39.062,0.000
1587072122.662,247.559,-49.316,-512.207,-19.043,0.000
1587072122.666,402.344,-47.852,-527.344,-24.414,0.000
1587072122.670,-112.305,-43.945,-436.523,49.316,0.000
1587072122.673,-380.859,-48.340,-537.598,97.656,0.000
1587072122.677,82.520,-45.410,-467.773,47.363,0.000
1587072122.681,452.637,-38.086,-304.199,-13.672,0.000
1587072122.685,68.359,-35.645,-383.301,51.758,0.000
1587072122.689,-371.582,-37.598,-556.152,105.469,0.000
1587072122.693,-60.547,-37.109,-489.258,66.895,0.000
1587072122.697,427.246,-30.762,-319.824,11.230,0.000
1587072122.701,217.285,-31.738,-430.664,34.180,0.000
1587072122.705,-318.848,-41.992,-630.859,96.191,0.000
1587072122.709,-215.332,-43.945,-630.371,83.008,0.000
1587072122.712,370.117,-30.762,-356.934,7.812,0.000
1587072122.716,376.953,-27.832,-291.504,11.230,0.000
1587072122.720,-215.820,-37.109,-525.879,82.520,0.000
1587072122.724,-335.938,-39.551,-629.395,91.309,0.000
1587072122.728,222.168,-33.203,-398.926,23.926,0.000
1587072122.732,441.895,-29.785,-266.113,-17.578,0.000
1587072122.736,-64.941,-38.086,-496.094,52.734,0.000
1587072122.740,-381.348,-45.410,-609.863,95.215,0.000
1587072122.744,44.434,-35.156,-430.176,45.898,0.000
1587072122.748,445.312,-28.809,-355.469,-11.719,0.000
1587072122.752,116.699,-41.504,-574.707,40.039,0.000
1587072122.755,-369.629,-49.805,-714.355,92.285,0.000
1587072122.759,-131.348,-42.969,-444.336,30.273,0.000
1587072122.763,396.973,-40.527,-335.449,-35.645,0.000
1587072122.767,234.375,-44.922,-445.801,-5.859,0.000
1587072122.771,-319.336,-45.898,-529.297,59.570,0.000
1587072122.775,-265.625,-42.480,-494.629,32.715,0.000
1587072122.779,305.664,-36.133,-384.277,-23.438,0.000
1587072122.783,369.629,-33.203,-412.598,-16.602,0.000
1587072122.787,-191.406,-39.551,-494.141,48.340,0.000
1587072122.791,-361.328,-44.434,-566.406,54.199,0.000
1587072122.795,158.691,-41.504,-518.555,-2.441,0.000
1587072122.798,417.480,-38.086,-393.555,-21.973,0.000
1587072122.802,-52.246,-36.621,-470.215,22.949,0.000
1587072122.806,-415.527,-39.062,-554.688,69.824,0.000
1587072122.810,-24.414,-44.922,-523.926,13.184,0.000
1587072122.814,418.457,-45.898,-499.023,-32.715,0.000
1587072122.818,109.375,-41.504,-493.652,12.695,0.000
1587072122.822,-397.461,-43.457,-582.520,59.082,0.000
1587072122.826,-186.035,-46.387,-595.703,20.020,0.000
1587072122.830,357.422,-39.551,-439.941,-38.574,0.000
1587072122.834,250.977,-36.621,-339.355,0.977,0.000
1587072122.837,-312.988,-42.969,-492.188,69.824,0.000
1587072122.841,-311.523,-51.758,-693.848,43.945,0.000
1587072122.845,233.398,-48.340,-553.223,-34.180,0.000
1587072122.849,338.379,-35.156,-285.645,-55.664,0.000
1587072122.853,-184.082,-38.086,-472.168,19.531,0.000
1587072122.857,-419.434,-45.898,-608.887,45.410,0.000
1587072122.861,64.941,-44.434,-435.547,-14.648,0.000
1587072122.865,397.461,-35.645,-303.223,-31.250,0.000
1587072122.869,-17.578,-38.574,-457.520,26.367,0.000
1587072122.873,-429.688,-43.457,-611.816,69.336,0.000
1587072122.877,-87.891,-40.527,-444.336,38.574,0.000
1587072122.880,384.277,-35.645,-283.691,-14.160,0.000
1587072122.884,115.234,-35.156,-412.598,-6.836,0.000
1587072122.888,-421.387,-47.363,-628.418,39.551,0.000
1587072122.892,-260.742,-49.805,-566.895,21.484,0.000
1587072122.896,309.570,-37.109,-302.734,-46.387,0.000
1587072122.900,276.855,-37.109,-382.324,-37.598,0.000
1587072122.904,-295.898,-42.480,-602.539,34.668,0.000
1587072122.908,-374.512,-41.016,-543.945,32.715,0.000
1587072122.912,177.246,-34.668,-419.434,-28.320,0.000
1587072122.916,346.680,-35.645,-494.629,-33.691,0.000
1587072122.920,-173.340,-47.363,-682.129,15.137,0.000
1587072122.923,-441.895,-45.898,-587.891,20.996,0.000
1587072122.927,12.207,-37.598,-409.668,-36.133,0.000
1587072122.931,368.652,-41.016,-361.328,-63.477,0.000
1587072122.935,-4.883,-43.945,-524.414,-11.719,0.000
1587072122.939,-452.637,-46.875,-587.402,29.785,0.000
1587072122.943,-147.461,-47.852,-478.516,-4.883,0.000
1587072122.947,356.445,-45.410,-543.457,-56.152,0.000
1587072122.951,151.855,-45.410,-588.867,-21.973,0.000
1587072122.955,-392.090,-41.992,-510.742,26.367,0.000
1587072122.959,-311.035,-43.457,-564.941,-3.906,0.000
1587072122.962,260.254,-38.574,-405.762,-51.758,0.000
1587072122.966,289.062,-29.785,-317.871,-52.246,0.000
1587072122.970,-261.719,-35.645,-483.887,20.996,0.000
1587072122.974,-390.137,-41.504,-538.574,30.273,0.000
1587072122.978,128.906,-37.598,-452.148,-22.461,0.000
1587072122.982,350.098,-39.062,-439.453,-23.438,0.000
1587072122.986,-119.141,-43.945,-481.445,7.812,0.000
1587072122.990,-443.848,-47.363,-558.594,34.668,0.000
1587072122.994,-14.160,-49.316,-529.297,-3.906,0.000
1587072122.998,395.020,-39.551,-306.641,-41.016,0.000
1587072123.002,42.969,-39.551,-384.766,-14.648,0.000
1587072123.005,-445.801,-50.781,-652.832,19.043,0.000
1587072123.009,-193.848,-45.898,-567.383,6.348,0.000
1587072123.013,347.656,-38.574,-280.762,-17.090,0.000
1587072123.017,200.684,-40.527,-333.008,-4.395,0.000
1587072123.021,-369.629,-48.340,-571.777,32.227,0.000
1587072123.025,-320.801,-47.363,-591.309,41.016,0.000
1587072123.029,251.465,-41.016,-456.543,-15.625,0.000
1587072123.033,309.570,-39.062,-358.398,-42.969,0.000
1587072123.037,-241.699,-47.363,-623.047,20.996,0.000
1587072123.041,-404.785,-49.316,-744.629,36.621,0.000
1587072123.045,118.164,-35.156,-373.535,-8.301,0.000
1587072123.048,391.602,-34.668,-312.012,-41.992,0.000
1587072123.052,-56.641,-41.016,-512.207,9.277,0.000
1587072123.056,-428.711,-38.574,-579.590,46.387,0.000
1587072123.060,-47.363,-33.203,-475.098,-7.812,0.000
1587072123.064,383.301,-38.086,-391.113,-47.852,0.000
1587072123.068,78.125,-41.016,-436.035,-18.066,0.000
1587072123.072,-431.152,-42.969,-579.102,15.137,0.000
1587072123.076,-218.262,-49.316,-597.168,-4.395,0.000
1587072123.080,336.914,-43.457,-422.363,-64.941,0.000
1587072123.084,220.703,-45.898,-466.309,-53.223,0.000
1587072123.087,-351.074,-53.711,-548.340,0.000,0.000
1587072123.091,-365.234,-47.852,-477.539,-24.414,0.000
1587072123.095,194.336,-42.969,-408.691,-63.477,0.000
1587072123.099,324.707,-43.945,-438.477,-59.570,0.000
1587072123.103,-202.148,-46.387,-503.418,-10.742,0.000
1587072123.107,-444.336,-44.434,-501.953,-8.301,0.000
1587072123.111,32.227,-44.922,-440.430,-46.387,0.000
1587072123.115,372.559,-42.480,-365.234,-62.500,0.000
1587072123.119,-46.387,-43.945,-440.918,-20.996,0.000
1587072123.123,-459.961,-51.270,-587.891,7.324,0.000
1587072123.127,-113.281,-59.570,-643.555,-14.648,0.000
1587072123.130,381.348,-58.594,-497.559,-62.012,0.000
1587072123.134,121.094,-44.922,-339.844,-40.039,0.000
1587072123.138,-428.223,-48.340,-562.988,20.020,0.000
1587072123.142,-260.254,-52.246,-548.828,-10.254,0.000
1587072123.146,309.570,-42.969,-297.363,-64.941,0.000
1587072123.150,251.465,-43.457,-290.527,-45.410,0.000
1587072123.154,-307.129,-52.246,-534.668,24.414,0.000
1587072123.158,-361.328,-56.152,-615.723,35.156,0.000
1587072123.162,178.223,-48.828,-375.977,-40.039,0.000
1587072123.166,350.098,-36.621,-297.852,-46.387,0.000
1587072123.170,-178.223,-45.898,-544.922,8.789,0.000
1587072123.173,-458.984,-59.082,-702.148,8.789,0.000
1587072123.177,9.766,-55.664,-525.391,-28.320,0.000
1587072123.181,396.973,-43.457,-322.754,-39.551,0.000
1587072123.185,8.301,-36.621,-441.406,14.160,0.000
1587072123.189,-440.918,-37.598,-592.285,32.715,0.000
1587072123.193,-134.277,-35.645,-493.164,-31.738,0.000
1587072123.197,363.281,-26.367,-285.645,-47.852,0.000
1587072123.201,176.270,-23.926,-371.582,-2.930,0.000
1587072123.205,-366.699,-28.809,-624.023,51.270,0.000
1587072123.209,-227.539,-20.996,-471.680,23.926,0.000
1587072123.212,302.734,-12.695,-328.613,-11.719,0.000
1587072123.216,260.254,-18.555,-543.945,3.418,0.000
1587072123.220,-238.770,-28.320,-669.434,29.297,0.000
1587072123.224,-364.258,-24.414,-499.512,19.531,0.000
1587072123.228,167.969,-20.996,-340.332,-20.508,0.000
1587072123.232,415.039,-20.996,-372.559,-16.113,0.000
1587072123.236,-87.891,-23.926,-550.293,42.969,0.000
1587072123.240,-429.199,-25.879,-555.664,54.688,0.000
1587072123.244,20.020,-16.602,-415.527,0.488,0.000
1587072123.248,444.336,-10.254,-332.520,-35.645,0.000
1587072123.252,87.891,-14.648,-396.484,1.465,0.000
1587072123.255,-387.207,-20.996,-529.297,41.992,0.000
1587072123.259,-144.043,-23.438,-495.605,7.324,0.000
1587072123.263,382.324,-19.531,-416.992,4.883,0.000
1587072123.267,253.906,-15.625,-415.039,16.602,0.000
1587072123.271,-327.637,-22.461,-523.926,17.578,0.000
1587072123.275,-293.457,-34.180,-597.168,9.766,0.000
1587072123.279,265.625,-27.344,-441.406,-40.527,0.000
1587072123.283,344.238,-14.648,-341.309,-35.156,0.000
1587072123.287,-203.125,-26.367,-541.016,29.297,0.000
1587072123.291,-406.250,-38.574,-728.516,38.574,0.000
1587072123.295,114.258,-34.668,-649.902,-20.020,0.000
1587072123.298,390.625,-22.949,-379.883,-44.434,0.000
1587072123.302,-61.523,-19.531,-443.359,1.465,0.000
1587072123.306,-416.504,-24.414,-651.367,18.066,0.000
1587072123.310,-35.645,-24.414,-604.004,-16.113,0.000
1587072123.314,400.391,-18.066,-399.414,-18.066,0.000
1587072123.318,88.867,-20.996,-394.043,3.906,0.000
1587072123.322,-404.297,-34.180,-721.680,26.367,0.000
1587072123.326,-212.402,-37.598,-706.543,20.020,0.000
1587072123.330,319.336,-26.855,-322.754,-27.832,0.000
1587072123.334,236.816,-24.902,-375.977,-8.789,0.000
1587072123.337,-315.918,-39.551,-605.469,24.902,0.000
1587072123.341,-334.473,-42.480,-568.359,7.324,0.000
1587072123.345,212.891,-27.832,-355.469,0.977,0.000
1587072123.349,326.660,-29.297,-360.352,0.488,0.000
1587072123.353,-193.359,-37.598,-569.824,-7.812,0.000
1587072123.357,-414.551,-38.574,-662.109,-10.742,0.000
1587072123.361,59.082,-30.273,-519.043,-41.016,0.000
1587072123.365,386.230,-27.344,-409.668,-47.852,0.000
1587072123.369,-25.391,-37.598,-585.938,-13.672,0.000
1587072123.373,-421.387,-30.273,-624.023,7.812,0.000
1587072123.377,-76.660,-19.043,-458.496,-20.996,0.000
1587072123.380,354.004,-23.926,-444.336,-43.457,0.000
1587072123.384,104.004,-29.297,-518.066,-17.090,0.000
1587072123.388,-400.879,-33.691,-558.594,-5.371,0.000
1587072123.392,-245.605,-31.250,-521.484,-20.020,0.000
1587072123.396,326.172,-26.855,-398.926,-43.457,0.000
1587072123.400,294.922,-31.250,-427.734,-42.480,0.000
1587072123.404,-287.109,-41.016,-615.234,-33.203,0.000
1587072123.408,-390.625,-45.410,-573.730,-48.828,0.000
1587072123.412,143.555,-51.758,-520.020,-78.613,0.000
1587072123.416,297.363,-62.012,-538.086,-88.867,0.000
1587072123.420,-207.520,-62.988,-436.523,-74.707,0.000
1587072123.423,-467.773,-66.895,-557.617,-70.312,0.000
1587072123.427,-37.109,-71.777,-485.352,-89.844,0.000
1587072123.431,330.566,-73.730,-294.434,-95.215,0.000
1587072123.435,-47.363,-82.520,-373.535,-41.504,0.000
1587072123.439,-503.418,-89.355,-575.684,-11.230,0.000
1587072123.443,-199.707,-83.984,-492.188,-69.824,0.000
1587072123.447,291.016,-77.637,-264.648,-97.168,0.000
1587072123.451,118.164,-81.055,-375.977,-51.270,0.000
1587072123.455,-400.879,-83.496,-569.336,-35.156,0.000
1587072123.459,-314.941,-78.613,-580.566,-51.758,0.000
1587072123.462,252.930,-66.406,-294.922,-62.988,0.000
1587072123.466,251.465,-64.453,-146.484,-34.668,0.000
1587072123.470,-299.805,-75.195,-439.941,-14.648,0.000
1587072123.474,-407.715,-74.219,-606.445,-45.898,0.000
1587072123.478,103.516,-62.500,-380.371,-64.453,0.000
1587072123.482,333.008,-53.711,-89.844,-71.777,0.000
1587072123.486,-77.637,-56.641,-260.254,24.902,0.000
1587072123.490,-340.332,-55.664,-440.918,118.652,0.000
1587072123.494,-13.184,-51.758,-219.238,3.418,0.000
1587072123.498,281.250,-51.758,-187.988,-145.020,0.000
1587072123.502,4.395,-51.758,-414.551,-69.824,0.000
1587072123.505,-363.281,-48.340,-495.605,89.844,0.000
1587072123.509,-154.785,-40.527,-269.531,41.016,0.000
1587072123.513,271.484,-39.551,7.812,-114.258,0.000
1587072123.517,146.484,-38.086,-40.527,-90.332,0.000
1587072123.521,-306.641,-39.062,-356.445,62.988,0.000
1587072123.525,-242.676,-36.621,-309.570,65.918,0.000
1587072123.529,225.586,-31.738,-195.801,-87.402,0.000
1587072123.533,238.770,-36.621,-244.629,-109.375,0.000
1587072123.537,-214.844,-37.598,-331.543,41.504,0.000
1587072123.541,-338.379,-37.109,-359.375,109.375,0.000
1587072123.545,80.566,-33.203,-323.730,-10.254,0.000
1587072123.548,282.715,-33.203,-373.535,-119.629,0.000
1587072123.552,-76.660,-34.668,-402.344,-26.855,0.000
1587072123.556,-344.238,-26.855,-325.684,102.051,0.000
1587072123.560,-37.109,-24.414,-328.125,20.508,0.000
1587072123.564,294.434,-31.250,-246.582,-107.910,0.000
1587072123.568,38.086,-35.645,-274.902,-38.574,0.000
1587072123.572,-358.398,-36.133,-380.371,78.125,0.000
1587072123.576,-179.688,-37.598,-401.855,33.691,0.000
1587072123.580,268.066,-35.645,-324.219,-124.512,0.000
1587072123.584,172.852,-31.250,-157.715,-131.836,0.000
1587072123.587,-287.109,-30.273,-296.875,26.855,0.000
1587072123.591,-278.809,-39.551,-503.418,57.129,0.000
1587072123.595,172.852,-38.086,-444.824,-68.359,0.000
1587072123.599,246.582,-25.391,-257.812,-129.883,0.000
1587072123.603,-174.316,-23.438,-304.199,-19.043,0.000
1587072123.607,-321.777,-33.203,-469.727,71.777,0.000
1587072123.611,64.453,-28.320,-370.117,-28.320,0.000
1587072123.615,301.758,-15.625,-47.852,-148.438,0.000
1587072123.619,-44.922,-21.973,-201.660,-69.824,0.000
1587072123.623,-359.863,-28.809,-422.852,86.426,0.000
1587072123.627,-71.777,-28.320,-317.871,10.742,0.000
1587072123.630,306.641,-26.367,-158.203,-146.484,0.000
1587072123.634,88.379,-26.367,-189.453,-85.449,0.000
1587072123.638,-335.938,-28.809,-453.613,89.844,0.000
1587072123.642,-200.684,-26.855,-374.023,71.777,0.000
1587072123.646,250.000,-19.531,-145.996,-97.168,0.000
1587072123.650,208.008,-21.973,-228.516,-96.191,0.000
1587072123.654,-242.676,-30.273,-445.312,63.965,0.000
1587072123.658,-268.066,-26.855,-358.887,87.402,0.000
1587072123.662,153.809,-17.090,-245.605,-57.617,0.000
1587072123.666,264.648,-19.043,-337.402,-133.789,0.000
1587072123.670,-133.789,-25.391,-417.969,-12.207,0.000
1587072123.673,-348.145,-20.508,-365.234,97.656,0.000
1587072123.677,20.020,-20.020,-237.793,-8.789,0.000
1587072123.681,316.406,-22.461,-219.238,-125.977,0.000
1587072123.685,11.230,-22.949,-418.457,-50.781,0.000
1587072123.689,-361.328,-27.344,-422.363,87.891,0.000
1587072123.693,-120.117,-25.879,-219.727,28.320,0.000
1587072123.697,290.527,-22.949,-346.680,-134.277,0.000
1587072123.701,112.305,-26.855,-490.723,-77.148,0.000
1587072123.705,-300.781,-21.484,-323.242,70.312,0.000
1587072123.709,-206.055,-22.949,-358.887,66.406,0.000
1587072123.712,225.098,-28.320,-309.570,-77.148,0.000
1587072123.716,214.355,-22.461,-242.188,-114.746,0.000
1587072123.720,-237.305,-25.391,-315.918,35.645,0.000
1587072123.724,-301.758,-28.320,-415.527,104.492,0.000
1587072123.728,110.352,-22.949,-375.977,-34.180,0.000
1587072123.732,278.320,-23.438,-350.586,-123.535,0.000
1587072123.736,-82.031,-20.996,-413.574,0.977,0.000
1587072123.740,-311.035,-20.020,-443.359,112.793,0.000
1587072123.744,19.531,-24.414,-481.445,20.996,0.000
1587072123.748,289.551,-22.461,-289.062,-137.207,0.000
1587072123.752,20.508,-21.973,-227.539,-54.199,0.000
1587072123.755,-311.523,-31.738,-459.961,109.863,0.000
1587072123.759,-109.375,-28.809,-438.965,33.203,0.000
1587072123.763,277.344,-20.996,-197.754,-140.625,0.000
1587072123.767,154.297,-22.949,-286.621,-121.094,0.000
1587072123.771,-274.414,-26.855,-481.934,41.992,0.000
1587072123.775,-218.750,-31.738,-442.871,51.758,0.000
1587072123.779,208.008,-38.086,-344.727,-109.863,0.000
1587072123.783,221.680,-32.715,-295.410,-140.625,0.000
1587072123.787,-175.293,-33.203,-520.508,15.137,0.000
1587072123.791,-292.480,-41.016,-580.566,64.941,0.000
1587072123.795,90.332,-29.297,-209.961,-89.844,0.000
1587072123.798,280.762,-27.832,-166.504,-187.988,0.000
1587072123.802,-47.363,-32.715,-376.465,-33.691,0.000
1587072123.806,-318.848,-27.344,-395.020,85.938,0.000
1587072123.810,-52.246,-23.926,-265.625,-26.855,0.000
1587072123.814,294.434,-20.020,-242.188,-150.391,0.000
1587072123.818,36.133,-25.879,-332.520,-95.215,0.000
1587072123.822,-328.125,-34.180,-444.824,63.965,0.000
1587072123.826,-152.832,-35.645,-461.914,41.992,0.000
1587072123.830,250.977,-39.062,-349.121,-129.883,0.000
1587072123.834,185.059,-41.016,-335.938,-145.508,0.000
1587072123.837,-274.414,-39.062,-382.812,22.949,0.000
1587072123.841,-276.855,-35.645,-354.980,58.594,0.000
1587072123.845,182.617,-37.109,-333.008,-103.027,0.000
1587072123.849,268.555,-32.227,-429.688,-161.133,0.000
1587072123.853,-160.156,-32.715,-398.438,-30.273,0.000
1587072123.857,-330.566,-40.527,-361.816,67.383,0.000
1587072123.861,51.758,-34.668,-412.109,-74.219,0.000
1587072123.865,292.480,-29.297,-337.402,-191.406,0.000
1587072123.869,-27.832,-37.109,-306.641,-64.453,0.000
1587072123.873,-302.734,-41.992,-442.871,74.707,0.000
1587072123.877,-47.363,-40.039,-481.445,-30.273,0.000
1587072123.880,282.715,-36.621,-395.508,-186.523,0.000
1587072123.884,87.402,-31.250,-252.441,-129.395,0.000
1587072123.888,-286.621,-32.715,-404.785,38.574,0.000
1587072123.892,-160.156,-32.227,-415.527,18.066,0.000
1587072123.896,259.766,-28.809,-195.801,-148.438,0.000
1587072123.900,201.172,-30.273,-165.527,-158.203,0.000
1587072123.904,-262.695,-36.621,-388.672,-17.578,0.000
1587072123.908,-280.762,-41.016,-442.871,17.578,0.000
1587072123.912,159.180,-29.785,-266.602,-120.117,0.000
1587072123.916,282.227,-23.438,-231.445,-183.105,0.000
1587072123.920,-106.934,-31.250,-423.828,-44.922,0.000
1587072123.923,-334.473,-38.574,-580.566,58.594,0.000
1587072123.927,6.836,-34.668,-393.555,-75.195,0.000
1587072123.931,317.871,-28.809,-104.004,-187.988,0.000
1587072123.935,22.461,-29.785,-232.422,-93.750,0.000
1587072123.939,-336.914,-33.203,-466.797,56.152,0.000
1587072123.943,-96.680,-33.203,-377.441,17.578,0.000
1587072123.947,274.902,-24.902,-268.555,-164.551,0.000
1587072123.951,114.746,-22.949,-371.094,-154.785,0.000
1587072123.955,-298.828,-26.367,-424.805,2.930,0.000
1587072123.959,-208.496,-20.996,-326.172,26.855,0.000
1587072123.962,226.074,-21.484,-151.367,-109.863,0.000
1587072123.966,198.242,-31.250,-286.133,-157.227,0.000
1587072123.970,-237.793,-34.668,-504.395,-7.324,0.000
1587072123.974,-298.828,-25.879,-294.434,52.734,0.000
1587072123.978,123.047,-19.043,-158.691,-109.375,0.000
1587072123.982,273.926,-23.926,-197.754,-184.082,0.000
1587072123.986,-104.004,-25.879,-315.430,-58.105,0.000
1587072123.990,-352.051,-22.461,-350.586,46.387,0.000
1587072123.994,-23.438,-22.949,-283.691,-45.898,0.000
1587072123.998,290.039,-20.020,-223.633,-155.273,0.000
1587072124.002,17.090,-13.672,-313.477,-83.496,0.000
1587072124.005,-342.773,-10.742,-386.230,13.184,0.000
1587072124.009,-141.602,-13.184,-310.059,-19.043,0.000
1587072124.013,261.230,-9.766,-294.922,-161.133,0.000
1587072124.017,125.488,-1.465,-312.500,-160.156,0.000
1587072124.021,-287.109,0.977,-330.566,-3.906,0.000
1587072124.025,-251.465,0.488,-366.211,-25.879,0.000
1587072124.029,180.664,-0.488,-354.492,-187.012,0.000
1587072124.033,231.445,4.883,-194.336,-211.426,0.000
1587072124.037,-207.520,-3.906,-319.824,-52.246,0.000
1587072124.041,-329.590,-8.789,-525.391,20.020,0.000
1587072124.045,84.961,2.441,-371.094,-129.395,0.000
1587072124.048,281.738,-2.441,-196.777,-205.078,0.000
1587072124.052,-68.848,-8.789,-292.969,-82.031,0.000
1587072124.056,-353.516,-7.812,-499.023,44.922,0.000
1587072124.060,-65.430,-6.836,-479.980,-50.781,0.000
1587072124.064,288.574,-2.441,-356.934,-182.129,0.000
1587072124.068,48.828,-3.906,-352.051,-106.445,0.000
1587072124.072,-348.145,-13.672,-573.242,58.105,0.000
1587072124.076,-156.738,-14.648,-632.812,43.457,0.000
1587072124.080,237.305,-1.953,-286.621,-142.090,0.000
1587072124.084,139.648,-0.488,-307.617,-174.805,0.000
1587072124.087,-280.273,1.465,-482.910,-20.020,0.000
1587072124.091,-272.461,3.906,-432.129,3.906,0.000
1587072124.095,176.758,3.906,-282.227,-137.695,0.000
1587072124.099,258.789,-4.395,-312.988,-187.012,0.000
1587072124.103,-206.055,-12.207,-464.844,-73.242,0.000
1587072124.107,-369.141,-4.395,-529.297,10.254,0.000
1587072124.111,47.852,0.977,-411.133,-99.121,0.000
1587072124.115,292.969,5.859,-316.406,-187.012,0.000
1587072124.119,-32.715,0.488,-521.973,-78.125,0.000
1587072124.123,-347.656,-5.859,-536.621,46.387,0.000
1587072124.127,-73.242,-0.977,-356.934,-56.641,0.000
1587072124.130,298.340,4.883,-407.715,-217.285,0.000
1587072124.134,93.750,0.977,-480.469,-158.203,0.000
1587072124.138,-322.754,-5.371,-476.562,-11.719,0.000
1587072124.142,-198.242,-2.930,-437.500,-13.184,0.000
1587072124.146,267.578,-3.906,-416.504,-133.301,0.000
1587072124.150,206.055,-2.930,-475.586,-187.988,0.000
1587072124.154,-263.184,-7.324,-571.777,-51.270,0.000
1587072124.158,-293.945,-12.207,-561.523,20.508,0.000
1587072124.162,125.000,-9.277,-539.551,-122.070,0.000
1587072124.166,262.207,-2.930,-547.363,-224.609,0.000
1587072124.170,-135.254,7.324,-435.059,-109.375,0.000
1587072124.173,-377.930,-6.836,-503.418,-41.992,0.000
1587072124.177,-1.953,-13.184,-516.113,-166.016,0.000
1587072124.181,301.270,5.371,-411.133,-285.156,0.000
1587072124.185,0.000,9.277,-392.090,-209.473,0.000
1587072124.189,-344.238,0.488,-541.504,-71.289,0.000
1587072124.193,-101.074,-2.930,-492.188,-129.883,0.000
1587072124.197,288.086,0.488,-328.613,-252.930,0.000
1587072124.201,89.355,-2.441,-415.527,-211.426,0.000
1587072124.205,-325.195,-3.418,-538.574,-89.355,0.000
1587072124.209,-232.910,-3.418,-470.703,-63.965,0.000
1587072124.212,217.773,0.977,-311.035,-187.012,0.000
1587072124.216,227.051,5.371,-281.738,-173.828,0.000
1587072124.220,-233.398,-4.883,-478.516,-7.812,0.000
1587072124.224,-340.820,-15.137,-647.949,31.250,0.000
1587072124.228,98.633,-5.371,-383.301,-70.801,0.000
1587072124.232,291.992,5.859,-210.938,-153.320,0.000
1587072124.236,-98.633,-3.418,-482.910,-63.965,0.000
1587072124.240,-357.910,-13.184,-578.613,62.500,0.000
1587072124.244,-41.016,-9.766,-345.215,-37.109,0.000
1587072124.248,282.715,-11.230,-318.359,-160.645,0.000
1587072124.252,-0.977,-24.902,-554.688,-68.848,0.000
1587072124.255,-379.395,-32.227,-659.668,85.938,0.000
1587072124.259,-126.465,-20.996,-362.793,42.969,0.000
1587072124.263,278.809,-10.254,-205.078,-103.027,0.000
1587072124.267,124.512,-17.090,-313.477,-89.355,0.000
1587072124.271,-328.125,-23.926,-439.941,54.688,0.000
1587072124.275,-293.945,-19.043,-392.578,75.684,0.000
1587072124.279,174.316,-13.672,-277.344,-40.527,0.000
