timestamps,TP9,AF7,AF8,TP10,Right AUX
1586465079.831,17.578,-42.969,467.773,-12.695,0.000
1586465079.835,-26.855,-44.922,535.645,-10.742,0.000
1586465079.839,-20.996,-45.898,501.953,-3.906,0.000
1586465079.843,-3.906,-41.016,457.520,-10.742,0.000
1586465079.847,-22.461,-44.434,423.340,-19.531,0.000
1586465079.850,-50.293,-49.805,473.145,14.160,0.000
1586465079.854,-53.711,-44.434,410.645,19.043,0.000
1586465079.858,-18.555,-43.945,366.699,-14.648,0.000
1586465079.862,37.598,-41.504,463.867,-41.992,0.000
1586465079.866,23.926,-41.992,461.914,-38.574,0.000
1586465079.870,-73.730,-50.293,554.688,-6.348,0.000
1586465079.874,-51.758,-58.105,556.641,-17.090,0.000
1586465079.878,13.672,-53.711,475.098,-62.012,0.000
1586465079.882,-5.371,-41.992,431.641,-50.293,0.000
1586465079.886,-53.711,-28.809,532.715,-25.879,0.000
1586465079.890,-100.586,-24.902,635.254,-3.906,0.000
1586465079.893,-99.121,-31.250,537.109,-35.156,0.000
1586465079.897,-80.078,-42.969,453.613,-99.609,0.000
1586465079.901,-13.184,-35.156,471.191,-83.496,0.000
1586465079.905,-11.230,-23.926,572.754,-36.621,0.000
1586465079.909,-9.766,-28.809,608.398,-66.895,0.000
1586465079.913,19.043,-33.691,437.012,-118.164,0.000
1586465079.917,-85.938,-35.156,477.539,-58.594,0.000
1586465079.921,-189.453,-33.691,622.559,-15.137,0.000
1586465079.925,-142.578,-26.367,593.262,-50.293,0.000
1586465079.929,-42.969,-27.344,407.227,-84.961,0.000
1586465079.933,-28.809,-38.574,432.617,-97.656,0.000
1586465079.936,-45.898,-31.250,624.023,-52.734,0.000
1586465079.940,-92.773,-28.809,636.230,-43.945,0.000
1586465079.944,-95.215,-33.203,374.023,-113.281,0.000
1586465079.948,-18.555,-21.484,360.840,-141.602,0.000
1586465079.952,-58.105,-18.555,619.141,-94.238,0.000
1586465079.956,-147.949,-30.762,579.102,-77.148,0.000
1586465079.960,-124.023,-34.180,442.383,-117.676,0.000
1586465079.964,5.859,-29.297,420.410,-162.109,0.000
1586465079.968,12.695,-24.902,557.129,-157.715,0.000
1586465079.972,-165.527,-38.086,565.430,-88.867,0.000
1586465079.975,-226.562,-47.852,452.148,-78.125,0.000
1586465079.979,-98.633,-38.574,355.469,-138.184,0.000
1586465079.983,-61.523,-36.621,432.129,-163.574,0.000
1586465079.987,-88.379,-38.574,499.512,-128.906,0.000
1586465079.991,-82.520,-42.969,371.582,-122.070,0.000
1586465079.995,-24.414,-55.176,288.574,-172.363,0.000
1586465079.999,-13.672,-52.734,379.395,-173.828,0.000
1586465080.003,-38.574,-47.363,403.809,-118.652,0.000
1586465080.007,-92.773,-62.012,350.098,-100.586,0.000
1586465080.011,-125.488,-66.406,314.941,-150.879,0.000
1586465080.015,-78.125,-65.918,228.516,-177.246,0.000
1586465080.018,-94.727,-65.918,259.766,-131.348,0.000
1586465080.022,-116.211,-70.801,357.422,-117.676,0.000
1586465080.026,-21.973,-82.031,347.656,-134.766,0.000
1586465080.030,36.133,-74.707,255.859,-169.922,0.000
1586465080.034,-48.340,-69.824,247.559,-150.879,0.000
1586465080.038,-144.531,-78.125,286.621,-116.211,0.000
1586465080.042,-203.125,-80.078,333.496,-94.238,0.000
1586465080.046,-125.488,-80.078,244.141,-136.719,0.000
1586465080.050,-35.645,-75.684,213.379,-158.691,0.000
1586465080.054,-107.422,-71.777,357.422,-104.004,0.000
1586465080.058,-160.156,-66.895,414.551,-119.141,0.000
1586465080.061,-101.074,-60.547,267.578,-186.523,0.000
1586465080.065,-121.094,-63.477,154.785,-177.246,0.000
1586465080.069,-195.801,-61.035,286.621,-122.559,0.000
1586465080.073,-180.664,-50.781,349.121,-104.492,0.000
1586465080.077,-112.793,-48.340,185.547,-130.371,0.000
1586465080.081,-107.910,-31.738,53.711,-158.203,0.000
1586465080.085,-140.137,-17.578,216.309,-109.375,0.000
1586465080.089,-123.047,3.418,362.305,-84.473,0.000
1586465080.093,-104.492,18.066,243.164,-109.375,0.000
1586465080.097,-122.559,16.113,-279.297,-125.488,0.000
1586465080.100,-127.930,17.578,-85.449,-107.910,0.000
1586465080.104,-122.070,20.508,417.969,-95.215,0.000
1586465080.108,-55.176,18.555,152.344,-119.629,0.000
1586465080.112,-77.637,11.230,-343.262,-154.785,0.000
1586465080.116,-187.012,5.371,-80.078,-137.695,0.000
1586465080.120,-184.570,3.906,308.594,-84.961,0.000
1586465080.124,-133.301,6.836,138.184,-99.609,0.000
1586465080.128,-106.445,5.859,-261.719,-127.930,0.000
1586465080.132,-114.258,2.441,-421.875,-136.230,0.000
1586465080.136,-156.250,0.488,-259.277,-101.074,0.000
1586465080.140,-213.379,-1.465,-280.273,-84.473,0.000
1586465080.143,-154.785,-4.883,-350.586,-137.695,0.000
1586465080.147,-139.648,-14.160,-405.762,-167.480,0.000
1586465080.151,-145.020,-7.812,-344.238,-149.414,0.000
1586465080.155,-84.961,-7.324,-320.801,-126.953,0.000
1586465080.159,-108.887,-12.207,-348.633,-169.922,0.000
1586465080.163,-74.707,-3.418,-532.715,-228.516,0.000
1586465080.167,-92.773,7.812,-489.258,-174.316,0.000
1586465080.171,-198.242,-2.930,-387.695,-128.418,0.000
1586465080.175,-122.070,-11.719,-387.695,-173.828,0.000
1586465080.179,-48.828,-11.230,-488.770,-239.258,0.000
1586465080.183,-138.184,-20.508,-539.062,-229.492,0.000
1586465080.186,-192.383,-26.855,-427.246,-157.715,0.000
1586465080.190,-142.578,-23.926,-386.230,-145.020,0.000
1586465080.194,-64.941,-14.160,-447.754,-196.289,0.000
1586465080.198,-81.543,-11.719,-606.445,-187.500,0.000
1586465080.202,-121.582,-7.812,-546.875,-130.371,0.000
1586465080.206,-131.836,-6.348,-296.875,-100.586,0.000
1586465080.210,-180.664,-15.137,-424.316,-131.348,0.000
1586465080.214,-131.348,-27.832,-612.793,-165.527,0.000
1586465080.218,-95.215,-40.527,-498.535,-125.977,0.000
1586465080.222,-139.160,-24.902,-427.734,-88.867,0.000
1586465080.225,-163.574,-19.531,-585.938,-117.188,0.000
1586465080.229,-104.492,-23.438,-841.797,-167.969,0.000
1586465080.233,-99.609,-22.949,-770.020,-142.090,0.000
1586465080.237,-160.156,-33.203,-465.820,-87.891,0.000
1586465080.241,-124.512,-45.898,-555.664,-113.770,0.000
1586465080.245,-100.586,-50.781,-771.484,-188.965,0.000
1586465080.249,-108.887,-56.641,-726.562,-186.035,0.000
1586465080.253,-119.141,-48.340,-618.652,-105.957,0.000
1586465080.257,-159.668,-35.645,-626.953,-90.332,0.000
1586465080.261,-116.211,-50.293,-706.543,-121.582,0.000
1586465080.265,-77.148,-60.059,-690.918,-131.348,0.000
1586465080.268,-145.508,-66.895,-527.344,-118.652,0.000
1586465080.272,-181.641,-79.590,-552.734,-104.980,0.000
1586465080.276,-142.090,-86.914,-700.684,-122.559,0.000
1586465080.280,-93.262,-86.426,-683.105,-150.879,0.000
1586465080.284,-111.328,-83.496,-510.742,-132.812,0.000
1586465080.288,-119.141,-89.355,-500.977,-93.750,0.000
1586465080.292,-142.090,-95.703,-595.215,-111.328,0.000
1586465080.296,-129.883,-100.098,-655.273,-166.016,0.000
1586465080.300,-83.496,-102.539,-630.371,-149.902,0.000
1586465080.304,-79.102,-104.980,-509.277,-90.332,0.000
1586465080.308,-53.711,-109.863,-559.570,-119.141,0.000
1586465080.311,-74.219,-112.793,-681.152,-156.738,0.000
1586465080.315,-157.227,-119.629,-623.047,-143.555,0.000
1586465080.319,-245.605,-120.117,-604.492,-98.633,0.000
1586465080.323,-248.047,-126.953,-578.125,-111.328,0.000
1586465080.327,-169.922,-142.578,-573.242,-156.738,0.000
1586465080.331,-120.117,-145.508,-699.219,-196.777,0.000
1586465080.335,-187.500,-151.367,-620.117,-149.902,0.000
1586465080.339,-194.824,-150.391,-467.285,-103.516,0.000
1586465080.343,-74.707,-145.996,-476.074,-167.480,0.000
1586465080.347,-30.762,-145.996,-679.199,-220.703,0.000
1586465080.350,-143.066,-158.203,-629.395,-163.086,0.000
1586465080.354,-129.883,-178.711,-376.953,-115.234,0.000
1586465080.358,-125.000,-189.453,-412.109,-147.461,0.000
1586465080.362,-272.461,-189.941,-642.578,-179.688,0.000
1586465080.366,-286.621,-176.758,-663.574,-152.344,0.000
1586465080.370,-232.422,-171.875,-501.953,-125.000,0.000
1586465080.374,-163.574,-174.316,-453.125,-145.508,0.000
1586465080.378,-135.742,-178.223,-651.855,-202.148,0.000
1586465080.382,-218.262,-188.965,-759.277,-180.664,0.000
1586465080.386,-231.445,-192.383,-407.715,-105.957,0.000
1586465080.390,-216.309,-190.918,-305.176,-132.812,0.000
1586465080.393,-193.359,-208.496,-498.535,-178.711,0.000
1586465080.397,-146.973,-221.680,-648.926,-177.734,0.000
1586465080.401,-190.430,-211.426,-469.238,-113.281,0.000
1586465080.405,-259.277,-209.473,-317.383,-96.191,0.000
1586465080.409,-169.434,-217.285,-465.820,-172.363,0.000
1586465080.413,-81.055,-217.285,-667.480,-245.605,0.000
1586465080.417,-207.031,-229.492,-513.184,-202.148,0.000
1586465080.421,-288.574,-250.000,-291.992,-143.555,0.000
1586465080.425,-277.832,-240.234,-542.480,-157.227,0.000
1586465080.429,-285.156,-238.281,-771.484,-199.219,0.000
1586465080.433,-263.672,-245.117,-469.727,-208.984,0.000
1586465080.436,-242.676,-251.953,-323.730,-179.688,0.000
1586465080.440,-244.141,-261.719,-376.465,-189.941,0.000
1586465080.444,-217.285,-263.672,-528.809,-230.957,0.000
1586465080.448,-221.191,-262.695,-557.617,-231.934,0.000
1586465080.452,-240.234,-272.461,-351.562,-212.402,0.000
1586465080.456,-293.945,-288.086,-385.742,-197.266,0.000
1586465080.460,-322.754,-293.457,-521.973,-234.375,0.000
1586465080.464,-255.859,-302.734,-535.156,-271.973,0.000
1586465080.468,-252.441,-299.805,-428.711,-217.773,0.000
1586465080.472,-365.234,-313.965,-430.664,-156.250,0.000
1586465080.475,-384.766,-325.684,-370.605,-183.105,0.000
1586465080.479,-275.879,-305.664,-392.090,-294.922,0.000
1586465080.483,-241.211,-301.758,-423.340,-294.434,0.000
1586465080.487,-346.191,-316.895,-371.094,-208.984,0.000
1586465080.491,-294.434,-330.566,-169.434,-233.887,0.000
1586465080.495,-201.172,-338.867,-255.371,-292.480,0.000
1586465080.499,-339.844,-336.426,-395.508,-274.414,0.000
1586465080.503,-408.691,-332.031,-33.691,-223.633,0.000
1586465080.507,-330.078,-345.703,106.445,-246.094,0.000
1586465080.511,-319.824,-353.516,-222.168,-305.664,0.000
1586465080.515,-315.918,-336.426,-556.152,-311.035,0.000
1586465080.518,-328.613,-338.867,-341.797,-259.766,0.000
1586465080.522,-324.707,-357.910,164.062,-268.066,0.000
1586465080.526,-246.582,-372.070,78.613,-336.426,0.000
1586465080.530,-227.539,-361.816,-289.551,-354.980,0.000
1586465080.534,-327.637,-346.191,-100.586,-269.531,0.000
1586465080.538,-425.781,-358.398,196.777,-218.262,0.000
1586465080.542,-358.887,-356.445,5.859,-280.273,0.000
1586465080.546,-277.832,-346.680,-356.934,-342.285,0.000
1586465080.550,-328.125,-353.516,-304.688,-283.691,0.000
1586465080.554,-339.355,-345.703,-135.254,-215.332,0.000
1586465080.558,-273.438,-336.914,-294.922,-222.168,0.000
1586465080.561,-265.625,-339.844,-507.324,-263.672,0.000
1586465080.565,-252.441,-332.031,-431.641,-297.852,0.000
1586465080.569,-248.047,-324.707,-118.164,-237.305,0.000
1586465080.573,-284.180,-326.660,-158.691,-193.359,0.000
1586465080.577,-270.996,-325.684,-430.176,-237.793,0.000
1586465080.581,-208.008,-314.941,-453.613,-256.348,0.000
1586465080.585,-210.938,-310.547,-320.801,-196.289,0.000
1586465080.589,-262.695,-313.965,-288.574,-184.570,0.000
1586465080.593,-241.211,-299.805,-383.301,-219.727,0.000
1586465080.597,-184.570,-285.645,-456.543,-251.953,0.000
1586465080.600,-207.520,-282.227,-411.133,-188.477,0.000
1586465080.604,-187.012,-271.973,-479.492,-118.164,0.000
1586465080.608,-120.605,-254.395,-565.918,-148.438,0.000
1586465080.612,-148.926,-237.305,-490.723,-187.012,0.000
1586465080.616,-201.172,-239.746,-461.426,-152.344,0.000
1586465080.620,-177.734,-240.234,-422.852,-106.445,0.000
1586465080.624,-117.676,-225.586,-381.836,-118.652,0.000
1586465080.628,-104.004,-231.934,-480.957,-160.645,0.000
1586465080.632,-136.230,-237.793,-587.891,-157.715,0.000
1586465080.636,-164.551,-222.656,-472.168,-98.633,0.000
1586465080.640,-158.203,-212.402,-417.480,-84.961,0.000
1586465080.643,-95.703,-212.402,-544.434,-120.117,0.000
1586465080.647,-82.520,-213.867,-710.449,-133.301,0.000
1586465080.651,-125.000,-199.707,-651.367,-78.613,0.000
1586465080.655,-118.164,-173.828,-437.988,-51.758,0.000
1586465080.659,-41.016,-164.551,-462.891,-89.844,0.000
1586465080.663,-42.969,-172.852,-692.383,-99.609,0.000
1586465080.667,-90.820,-177.734,-655.273,-64.453,0.000
1586465080.671,-112.793,-171.387,-469.727,-47.852,0.000
1586465080.675,-99.609,-161.133,-504.395,-69.824,0.000
1586465080.679,-55.664,-172.363,-645.508,-98.633,0.000
1586465080.683,-45.410,-167.480,-655.273,-69.824,0.000
1586465080.686,-86.914,-147.461,-475.586,2.930,0.000
1586465080.690,-39.551,-147.949,-473.145,0.000,0.000
1586465080.694,-1.953,-156.738,-695.312,-57.129,0.000
1586465080.698,-16.113,-159.668,-724.121,-69.336,0.000
1586465080.702,-0.977,-150.879,-494.629,-29.785,0.000
1586465080.706,-29.297,-147.461,-486.816,6.836,0.000
1586465080.710,-62.988,-149.414,-654.297,-18.066,0.000
1586465080.714,-26.855,-148.438,-653.320,-82.520,0.000
1586465080.718,-32.227,-143.066,-545.410,-23.926,0.000
1586465080.722,-80.078,-133.789,-552.734,32.715,0.000
1586465080.725,-48.828,-134.277,-657.715,-11.719,0.000
1586465080.729,11.719,-139.648,-717.285,-48.340,0.000
1586465080.733,-35.645,-137.207,-596.680,-46.387,0.000
1586465080.737,-78.125,-129.395,-570.312,-45.898,0.000
1586465080.741,-38.086,-133.789,-650.391,-79.102,0.000
1586465080.745,-71.289,-131.836,-771.973,-127.930,0.000
1586465080.749,-221.680,-139.648,-972.656,-217.285,0.000
1586465080.753,-251.953,-139.648,-998.047,-226.074,0.000
1586465080.757,-226.074,-128.906,-988.770,-163.086,0.000
1586465080.761,-247.070,-137.695,-995.117,-167.969,0.000
1586465080.765,-188.965,-140.625,-979.004,-183.594,0.000
1586465080.768,-122.559,-127.930,-985.352,-121.582,0.000
1586465080.772,-117.188,-118.652,-979.004,-96.191,0.000
1586465080.776,-48.340,-122.559,-942.383,-118.164,0.000
1586465080.780,-10.254,-135.254,-963.379,-118.164,0.000
1586465080.784,-84.961,-130.371,-952.148,-71.289,0.000
1586465080.788,-134.766,-125.000,-915.039,-29.297,0.000
1586465080.792,-101.562,-126.953,-888.184,-37.598,0.000
1586465080.796,-40.527,-137.695,-897.461,-78.125,0.000
1586465080.800,-37.598,-141.113,-962.402,-48.340,0.000
1586465080.804,-43.945,-126.465,-890.625,-14.648,0.000
1586465080.808,75.684,-122.559,-767.090,-71.289,0.000
1586465080.811,73.242,-129.395,-838.867,-84.473,0.000
1586465080.815,-109.863,-134.277,-850.098,-18.066,0.000
1586465080.819,-138.184,-128.906,-791.992,35.645,0.000
1586465080.823,-40.039,-111.816,-755.859,9.766,0.000
1586465080.827,84.473,-98.633,-770.020,-47.363,0.000
1586465080.831,59.570,-110.352,-824.707,-48.340,0.000
1586465080.835,-22.949,-128.906,-771.484,-26.367,0.000
1586465080.839,-2.930,-115.723,-699.707,-14.160,0.000
1586465080.843,34.180,-105.957,-775.879,-21.973,0.000
1586465080.847,86.914,-103.027,-852.051,-41.016,0.000
1586465080.850,36.133,-98.145,-663.574,-12.695,0.000
1586465080.854,-40.527,-98.145,-562.988,2.441,0.000
1586465080.858,-33.691,-109.863,-677.734,-10.254,0.000
1586465080.862,22.949,-126.465,-742.188,-55.664,0.000
1586465080.866,41.016,-108.887,-625.000,-19.531,0.000
1586465080.870,4.395,-88.379,-531.250,39.062,0.000
1586465080.874,-10.742,-91.309,-593.750,10.254,0.000
1586465080.878,-2.441,-94.238,-720.703,-33.203,0.000
1586465080.882,17.090,-90.820,-726.562,-27.344,0.000
1586465080.886,10.254,-92.285,-590.820,25.391,0.000
1586465080.890,33.203,-106.934,-675.293,45.410,0.000
1586465080.893,62.012,-114.746,-750.977,0.977,0.000
1586465080.897,9.277,-100.586,-635.254,-35.156,0.000
1586465080.901,-36.133,-92.285,-651.367,-1.953,0.000
1586465080.905,-20.996,-98.145,-560.547,12.695,0.000
1586465080.909,1.465,-105.957,-527.344,0.488,0.000
1586465080.913,40.527,-105.469,-664.551,-14.160,0.000
1586465080.917,9.766,-106.445,-630.859,28.809,0.000
1586465080.921,-40.039,-96.680,-478.516,41.504,0.000
1586465080.925,24.902,-83.984,-484.375,17.578,0.000
1586465080.929,83.008,-92.773,-633.789,-17.578,0.000
1586465080.933,50.781,-116.699,-641.602,-1.465,0.000
1586465080.936,-21.484,-115.234,-581.055,61.035,0.000
1586465080.940,-46.875,-95.215,-465.820,51.758,0.000
1586465080.944,1.953,-106.934,-476.562,-11.230,0.000
1586465080.948,63.477,-113.770,-617.188,-37.598,0.000
1586465080.952,65.918,-97.656,-554.688,6.348,0.000
1586465080.956,47.363,-83.984,-449.219,24.414,0.000
1586465080.960,54.199,-101.562,-556.152,-14.648,0.000
1586465080.964,55.664,-109.863,-613.770,-32.227,0.000
1586465080.968,4.883,-93.262,-499.023,31.250,0.000
1586465080.972,-68.359,-96.191,-467.285,51.270,0.000
1586465080.975,-50.293,-107.910,-542.480,16.113,0.000
1586465080.979,15.625,-110.352,-716.797,-0.977,0.000
1586465080.983,25.391,-102.051,-679.199,30.762,0.000
1586465080.987,22.461,-91.309,-419.922,51.758,0.000
1586465080.991,24.414,-89.844,-501.953,24.902,0.000
1586465080.995,25.879,-91.797,-627.441,1.465,0.000
1586465080.999,37.598,-93.750,-543.457,12.207,0.000
1586465081.003,69.336,-92.773,-456.543,16.113,0.000
1586465081.007,45.410,-89.355,-507.324,18.066,0.000
1586465081.011,-18.555,-92.285,-582.031,10.742,0.000
1586465081.015,20.020,-100.098,-581.055,-3.906,0.000
1586465081.018,18.066,-96.191,-559.570,36.133,0.000
1586465081.022,-49.805,-88.867,-577.637,69.336,0.000
1586465081.026,-30.762,-91.797,-641.113,22.949,0.000
1586465081.030,54.199,-80.566,-615.723,-23.438,0.000
1586465081.034,26.367,-72.754,-516.113,0.977,0.000
1586465081.038,-70.312,-83.008,-535.645,35.156,0.000
1586465081.042,0.977,-89.355,-594.727,22.461,0.000
1586465081.046,141.602,-87.891,-549.316,-11.719,0.000
1586465081.050,77.637,-93.262,-510.742,3.906,0.000
1586465081.054,-43.457,-102.051,-521.484,45.898,0.000
1586465081.058,18.066,-85.449,-543.457,41.016,0.000
1586465081.061,61.035,-71.289,-542.480,20.020,0.000
1586465081.065,16.113,-87.402,-543.457,10.254,0.000
1586465081.069,-4.395,-107.422,-628.906,27.832,0.000
1586465081.073,-26.367,-99.121,-666.504,52.246,0.000
1586465081.077,-15.137,-90.820,-544.434,8.301,0.000
1586465081.081,7.812,-101.074,-570.312,-35.156,0.000
1586465081.085,-33.691,-104.004,-566.406,15.625,0.000
1586465081.089,-28.320,-101.562,-476.562,47.852,0.000
1586465081.093,59.570,-96.680,-473.145,6.348,0.000
1586465081.097,67.383,-105.957,-567.383,-30.762,0.000
1586465081.100,3.906,-103.027,-582.520,19.531,0.000
1586465081.104,-8.301,-87.891,-490.234,36.133,0.000
1586465081.108,24.902,-86.426,-464.844,0.000,0.000
1586465081.112,55.664,-93.262,-592.285,-9.277,0.000
1586465081.116,58.594,-99.121,-639.648,16.113,0.000
1586465081.120,-17.578,-92.773,-514.160,63.965,0.000
1586465081.124,-48.828,-74.707,-443.848,50.781,0.000
1586465081.128,0.000,-79.590,-598.145,-4.883,0.000
1586465081.132,-16.602,-100.098,-660.156,-20.508,0.000
1586465081.136,-17.090,-90.332,-481.445,15.137,0.000
1586465081.140,14.648,-82.520,-429.688,33.203,0.000
1586465081.143,49.805,-82.031,-554.199,-6.836,0.000
1586465081.147,65.918,-92.773,-612.793,-18.066,0.000
1586465081.151,13.184,-97.168,-462.402,22.949,0.000
1586465081.155,-35.645,-83.496,-423.828,11.230,0.000
1586465081.159,17.090,-85.938,-505.371,-25.391,0.000
1586465081.163,51.270,-88.379,-627.930,-29.785,0.000
1586465081.167,-15.137,-79.102,-538.574,25.879,0.000
1586465081.171,-65.430,-89.355,-454.590,62.988,0.000
1586465081.175,-33.203,-100.586,-538.574,21.484,0.000
1586465081.179,3.418,-88.379,-553.223,-23.438,0.000
1586465081.183,22.461,-82.031,-487.305,0.488,0.000
1586465081.186,54.199,-81.055,-437.988,29.785,0.000
1586465081.190,47.852,-71.777,-627.441,36.133,0.000
1586465081.194,18.066,-80.566,-691.895,-11.719,0.000
1586465081.198,0.000,-89.355,-540.039,-39.551,0.000
1586465081.202,-46.387,-84.961,-445.801,26.855,0.000
1586465081.206,-26.367,-84.961,-457.520,30.762,0.000
1586465081.210,69.336,-81.055,-566.895,-19.531,0.000
1586465081.214,45.898,-77.637,-522.461,-17.578,0.000
1586465081.218,-5.371,-78.613,-472.656,45.898,0.000
1586465081.222,19.531,-75.684,-563.477,46.387,0.000
1586465081.225,55.176,-74.219,-471.191,12.207,0.000
1586465081.229,50.781,-79.590,-474.609,7.812,0.000
1586465081.233,13.184,-78.125,-575.684,33.691,0.000
1586465081.237,32.715,-70.312,-533.203,48.828,0.000
1586465081.241,29.785,-68.359,-485.352,44.434,0.000
1586465081.245,-31.250,-82.520,-603.027,14.648,0.000
1586465081.249,4.883,-85.938,-553.223,29.785,0.000
1586465081.253,62.988,-71.289,-477.051,53.223,0.000
1586465081.257,43.457,-70.312,-493.652,12.207,0.000
1586465081.261,52.734,-76.172,-542.969,-4.395,0.000
1586465081.265,46.875,-72.266,-700.684,23.926,0.000
1586465081.268,40.039,-62.500,-668.945,59.570,0.000
1586465081.272,76.660,-50.781,-430.176,42.969,0.000
1586465081.276,85.938,-49.805,-515.625,16.113,0.000
1586465081.280,46.875,-59.082,-607.422,25.391,0.000
1586465081.284,13.184,-60.547,-480.957,71.777,0.000
1586465081.288,42.480,-57.617,-523.926,102.051,0.000
1586465081.292,131.348,-47.852,-592.773,46.875,0.000
1586465081.296,178.223,-50.781,-556.152,-0.488,0.000
1586465081.300,111.816,-54.688,-501.953,33.203,0.000
1586465081.304,38.574,-53.711,-502.930,62.012,0.000
1586465081.308,32.715,-60.059,-578.125,59.082,0.000
1586465081.311,84.473,-70.801,-683.105,37.598,0.000
1586465081.315,83.984,-73.242,-561.035,69.824,0.000
1586465081.319,-40.039,-58.105,-410.156,98.145,0.000
1586465081.323,-14.648,-58.105,-513.184,55.664,0.000
1586465081.327,110.840,-66.406,-629.883,23.438,0.000
1586465081.331,119.141,-72.266,-534.668,12.207,0.000
1586465081.335,48.340,-79.102,-444.336,31.738,0.000
1586465081.339,-25.879,-81.055,-480.957,44.922,0.000
1586465081.343,10.254,-76.172,-515.137,24.414,0.000
1586465081.347,86.914,-73.242,-563.965,7.812,0.000
1586465081.350,24.414,-76.172,-552.246,35.156,0.000
1586465081.354,-20.508,-71.777,-622.070,80.078,0.000
1586465081.358,28.809,-63.965,-637.695,61.523,0.000
1586465081.362,105.957,-73.242,-459.473,6.836,0.000
1586465081.366,148.926,-78.125,-471.680,31.738,0.000
1586465081.370,50.781,-71.289,-521.484,71.289,0.000
1586465081.374,31.250,-67.383,-479.980,51.758,0.000
1586465081.378,123.535,-59.570,-482.910,22.949,0.000
1586465081.382,74.707,-65.918,-545.410,33.203,0.000
1586465081.386,-27.832,-72.266,-531.250,52.734,0.000
1586465081.390,35.156,-70.312,-451.172,69.336,0.000
1586465081.393,141.602,-69.824,-497.070,38.574,0.000
1586465081.397,25.391,-82.031,-625.977,2.441,0.000
1586465081.401,-89.355,-99.121,-588.379,40.039,0.000
1586465081.405,-18.066,-83.008,-464.355,61.523,0.000
1586465081.409,48.828,-70.312,-447.266,23.438,0.000
1586465081.413,41.992,-85.938,-574.219,-9.277,0.000
1586465081.417,16.113,-88.867,-550.293,41.504,0.000
1586465081.421,-32.227,-82.520,-414.551,60.547,0.000
1586465081.425,-3.906,-84.473,-436.523,40.527,0.000
1586465081.429,104.980,-91.309,-580.078,-4.883,0.000
1586465081.433,81.543,-94.727,-549.805,21.973,0.000
1586465081.436,16.113,-83.496,-395.020,57.129,0.000
1586465081.440,40.039,-86.426,-415.527,55.664,0.000
1586465081.444,40.039,-100.586,-677.246,41.504,0.000
1586465081.448,-2.930,-84.473,-678.711,11.719,0.000
1586465081.452,12.207,-69.824,-444.824,31.738,0.000
1586465081.456,49.316,-82.520,-489.258,34.668,0.000
1586465081.460,30.762,-100.098,-517.578,9.766,0.000
1586465081.464,21.484,-96.680,-535.156,-2.441,0.000
1586465081.468,57.129,-86.914,-479.980,18.555,0.000
1586465081.472,62.988,-86.914,-452.148,34.668,0.000
1586465081.475,-17.578,-96.680,-565.918,17.090,0.000
1586465081.479,-27.832,-93.262,-599.609,5.371,0.000
1586465081.483,10.742,-78.125,-498.047,25.879,0.000
1586465081.487,5.371,-83.008,-506.348,32.227,0.000
1586465081.491,81.055,-84.473,-559.570,28.809,0.000
1586465081.495,108.887,-87.891,-617.188,-3.418,0.000
1586465081.499,27.344,-89.844,-515.625,3.418,0.000
1586465081.503,-21.973,-98.633,-517.578,37.109,0.000
1586465081.507,-16.113,-97.168,-656.738,38.086,0.000
1586465081.511,58.105,-67.383,-560.059,21.484,0.000
1586465081.515,51.270,-72.754,-509.766,11.230,0.000
1586465081.518,-26.367,-91.309,-548.340,23.438,0.000
1586465081.522,3.418,-83.008,-563.965,21.484,0.000
1586465081.526,21.973,-73.730,-520.020,-2.930,0.000
1586465081.530,-9.277,-72.754,-522.461,-9.277,0.000
1586465081.534,-4.883,-77.637,-571.289,-4.395,0.000
1586465081.538,50.781,-73.730,-609.375,-1.465,0.000
1586465081.542,77.637,-71.777,-550.781,8.301,0.000
1586465081.546,59.082,-85.449,-604.004,2.930,0.000
1586465081.550,0.000,-95.215,-693.848,18.066,0.000
1586465081.554,-68.848,-96.680,-575.195,42.969,0.000
1586465081.558,-36.133,-96.680,-465.332,33.691,0.000
1586465081.561,44.922,-98.145,-590.820,-8.789,0.000
1586465081.565,50.293,-91.797,-695.801,-2.441,0.000
1586465081.569,-36.621,-80.566,-603.027,36.133,0.000
1586465081.573,-74.707,-78.613,-493.164,58.105,0.000
1586465081.577,-1.953,-83.496,-545.898,20.996,0.000
1586465081.581,47.852,-88.867,-624.512,-31.250,0.000
1586465081.585,12.207,-94.238,-575.195,14.648,0.000
1586465081.589,-38.086,-92.773,-474.609,45.898,0.000
1586465081.593,23.438,-92.285,-545.410,23.438,0.000
1586465081.597,68.359,-91.797,-692.383,-26.855,0.000
1586465081.600,9.766,-80.078,-512.207,-4.883,0.000
1586465081.604,-64.453,-75.684,-456.055,36.621,0.000
1586465081.608,-20.508,-93.750,-615.723,28.320,0.000
1586465081.612,26.367,-95.703,-680.664,-20.020,0.000
1586465081.616,6.348,-77.148,-506.836,-35.645,0.000
1586465081.620,2.441,-85.938,-455.078,-9.277,0.000
1586465081.624,-23.926,-102.539,-524.902,-13.184,0.000
1586465081.628,-54.688,-100.586,-598.145,-46.875,0.000
1586465081.632,-60.547,-99.121,-625.000,-28.320,0.000
1586465081.636,-62.012,-108.887,-525.879,7.812,0.000
1586465081.640,-74.707,-119.141,-636.719,-33.203,0.000
1586465081.643,-74.219,-121.582,-721.191,-75.684,0.000
1586465081.647,-78.125,-120.117,-504.395,-62.012,0.000
1586465081.651,-129.395,-125.000,-489.746,-30.762,0.000
1586465081.655,-141.602,-128.906,-512.207,-7.324,0.000
1586465081.659,-15.137,-116.699,-492.188,-43.945,0.000
1586465081.663,95.215,-109.375,-553.223,-46.387,0.000
1586465081.667,-13.184,-119.629,-535.645,8.301,0.000
1586465081.671,-146.484,-123.047,-485.840,32.715,0.000
1586465081.675,-83.496,-115.723,-484.375,14.648,0.000
1586465081.679,53.223,-108.398,-577.148,-26.855,0.000
1586465081.683,-0.488,-118.652,-596.680,-3.906,0.000
1586465081.686,-125.000,-128.906,-568.848,27.344,0.000
1586465081.690,-86.914,-114.746,-466.309,28.809,0.000
1586465081.694,21.484,-100.586,-471.680,4.883,0.000
1586465081.698,47.852,-114.746,-613.770,-10.742,0.000
1586465081.702,-17.578,-115.723,-583.496,26.855,0.000
1586465081.706,-68.359,-97.656,-431.152,78.125,0.000
1586465081.710,-34.180,-107.422,-466.309,27.832,0.000
1586465081.714,29.297,-106.445,-566.895,-31.250,0.000
1586465081.718,-13.184,-98.145,-518.066,18.555,0.000
1586465081.722,-38.086,-102.051,-484.375,36.133,0.000
1586465081.725,21.973,-88.379,-562.988,2.930,0.000
1586465081.729,39.551,-86.426,-722.656,-9.277,0.000
1586465081.733,14.648,-88.867,-671.387,10.742,0.000
1586465081.737,-21.484,-82.031,-417.480,34.668,0.000
1586465081.741,-50.781,-90.820,-464.355,26.367,0.000
1586465081.745,-21.484,-105.957,-602.051,2.441,0.000
1586465081.749,2.930,-102.539,-552.246,8.301,0.000
1586465081.753,15.625,-94.238,-442.383,30.273,0.000
1586465081.757,29.785,-98.145,-491.699,20.020,0.000
1586465081.761,39.062,-99.121,-566.895,3.418,0.000
1586465081.765,13.184,-102.539,-518.555,24.414,0.000
1586465081.768,-51.270,-99.121,-486.816,36.621,0.000
1586465081.772,-30.762,-88.379,-561.523,27.344,0.000
1586465081.776,30.273,-85.938,-612.305,6.348,0.000
1586465081.780,56.641,-86.426,-584.473,-20.020,0.000
1586465081.784,3.418,-94.238,-527.832,9.766,0.000
1586465081.788,-45.898,-97.168,-545.410,31.250,0.000
1586465081.792,12.695,-86.914,-583.984,7.324,0.000
1586465081.796,29.785,-84.961,-540.527,-15.137,0.000
1586465081.800,-9.277,-98.633,-500.488,7.812,0.000
1586465081.804,2.930,-97.656,-506.348,40.527,0.000
1586465081.808,35.645,-89.355,-537.109,37.598,0.000
1586465081.811,-19.531,-99.121,-513.672,-3.906,0.000
1586465081.815,-62.500,-101.562,-508.789,6.836,0.000
1586465081.819,-36.621,-95.215,-636.230,39.551,0.000
1586465081.823,6.836,-93.750,-640.625,20.996,0.000
1586465081.827,22.461,-95.703,-470.215,-2.441,0.000
1586465081.831,6.836,-91.309,-542.480,-21.484,0.000
1586465081.835,-64.941,-92.285,-532.227,-3.906,0.000
1586465081.839,-74.219,-97.656,-486.328,16.602,0.000
1586465081.843,12.207,-97.168,-520.508,-2.930,0.000
1586465081.847,10.254,-92.773,-532.715,-30.762,0.000
1586465081.850,-39.062,-92.285,-554.199,-12.695,0.000
1586465081.854,10.742,-83.008,-493.652,-6.348,0.000
1586465081.858,27.832,-80.566,-450.195,-28.809,0.000
1586465081.862,-24.414,-85.938,-541.016,-44.922,0.000
1586465081.866,-21.973,-86.426,-585.938,-33.203,0.000
1586465081.870,-38.574,-89.355,-477.539,1.465,0.000
1586465081.874,-66.895,-99.609,-458.984,19.043,0.000
1586465081.878,-7.812,-100.098,-630.371,-6.836,0.000
1586465081.882,22.949,-81.543,-630.859,-15.625,0.000
1586465081.886,-41.992,-81.055,-439.941,23.438,0.000
1586465081.890,-3.906,-78.613,-390.625,23.438,0.000
1586465081.893,89.355,-80.078,-543.457,-23.438,0.000
1586465081.897,63.965,-87.891,-615.723,-41.016,0.000
1586465081.901,-31.738,-83.984,-477.539,4.883,0.000
1586465081.905,-55.176,-87.891,-437.500,17.578,0.000
1586465081.909,-24.414,-92.285,-508.301,5.859,0.000
1586465081.913,25.391,-87.402,-603.516,4.883,0.000
1586465081.917,25.879,-82.520,-508.301,2.441,0.000
1586465081.921,-23.438,-88.379,-446.289,-5.371,0.000
1586465081.925,-21.973,-90.332,-530.762,-4.395,0.000
1586465081.929,48.340,-87.891,-540.527,-25.391,0.000
1586465081.933,78.613,-87.891,-484.375,-38.086,0.000
1586465081.936,-35.156,-92.285,-436.523,-2.441,0.000
1586465081.940,-84.473,-98.145,-602.051,13.184,0.000
1586465081.944,-23.438,-97.168,-719.238,-3.906,0.000
1586465081.948,-30.273,-103.516,-554.199,-14.648,0.000
1586465081.952,-59.570,-97.168,-461.914,1.953,0.000
1586465081.956,7.812,-88.867,-516.113,5.371,0.000
1586465081.960,70.312,-93.262,-592.285,-27.344,0.000
1586465081.964,48.828,-83.496,-588.867,-38.574,0.000
1586465081.968,0.000,-73.242,-568.359,-21.484,0.000
1586465081.972,-31.250,-78.125,-590.820,4.883,0.000
1586465081.975,-7.324,-82.520,-508.301,9.277,0.000
1586465081.979,10.742,-87.891,-479.980,-57.617,0.000
1586465081.983,-41.016,-91.309,-558.594,-43.457,0.000
1586465081.987,-62.988,-90.332,-556.641,13.184,0.000
1586465081.991,-16.113,-89.355,-439.941,0.488,0.000
1586465081.995,61.035,-84.473,-516.602,-39.062,0.000
1586465081.999,60.547,-85.449,-565.918,-17.090,0.000
1586465082.003,-56.152,-96.680,-489.258,23.438,0.000
1586465082.007,-75.195,-102.051,-518.066,18.555,0.000
1586465082.011,-4.395,-94.238,-569.336,-34.668,0.000
1586465082.015,20.996,-83.496,-696.289,-37.598,0.000
1586465082.018,-37.598,-78.125,-692.871,17.578,0.000
1586465082.022,-51.270,-82.031,-449.219,19.531,0.000
1586465082.026,4.395,-95.703,-520.020,-22.949,0.000
1586465082.030,9.766,-96.191,-608.887,-17.090,0.000
1586465082.034,-14.160,-77.148,-516.602,29.297,0.000
1586465082.038,32.227,-69.824,-507.812,6.836,0.000
1586465082.042,18.066,-81.543,-568.359,-27.344,0.000
1586465082.046,-61.035,-80.078,-588.867,-27.344,0.000
1586465082.050,-91.797,-79.102,-531.250,6.348,0.000
1586465082.054,-93.262,-96.680,-544.434,14.160,0.000
1586465082.058,-24.414,-95.703,-580.566,-13.672,0.000
1586465082.061,50.293,-90.332,-648.926,-3.418,0.000
1586465082.065,-7.324,-84.961,-543.457,0.488,0.000
1586465082.069,-103.027,-84.473,-423.828,6.836,0.000
1586465082.073,-73.730,-94.727,-541.504,-9.766,0.000
1586465082.077,-3.418,-90.332,-668.945,-53.711,0.000
1586465082.081,35.645,-82.031,-560.547,-64.453,0.000
1586465082.085,-6.836,-94.727,-490.234,-11.230,0.000
1586465082.089,-31.738,-87.402,-557.617,41.504,0.000
1586465082.093,22.461,-67.871,-559.082,-15.625,0.000
1586465082.097,3.418,-84.473,-583.984,-52.246,0.000
1586465082.100,-40.527,-91.797,-565.918,-11.230,0.000
1586465082.104,-29.785,-81.055,-644.043,6.348,0.000
1586465082.108,10.742,-80.078,-645.508,-0.977,0.000
1586465082.112,46.875,-80.078,-516.602,-15.625,0.000
1586465082.116,42.969,-90.332,-539.062,1.465,0.000
1586465082.120,44.922,-93.750,-497.070,-7.812,0.000
1586465082.124,6.348,-92.285,-469.727,-15.625,0.000
1586465082.128,10.742,-95.703,-528.320,-14.160,0.000
1586465082.132,16.602,-87.891,-583.984,-25.391,0.000
1586465082.136,-34.668,-95.215,-602.051,-2.930,0.000
1586465082.140,-41.016,-88.867,-514.648,29.297,0.000
1586465082.143,8.301,-75.684,-520.996,-11.719,0.000
1586465082.147,41.992,-92.285,-642.090,-60.059,0.000
1586465082.151,-12.207,-92.285,-596.191,-3.418,0.000
1586465082.155,-70.801,-80.566,-489.746,29.297,0.000
1586465082.159,-5.859,-86.914,-452.637,-17.090,0.000
1586465082.163,76.172,-90.332,-582.031,-63.477,0.000
1586465082.167,50.293,-91.797,-548.340,2.441,0.000
1586465082.171,0.488,-87.402,-416.992,30.762,0.000
1586465082.175,-9.277,-92.773,-453.613,-25.879,0.000
1586465082.179,-5.371,-97.656,-584.961,-39.062,0.000
1586465082.183,26.855,-77.148,-591.309,-15.625,0.000
1586465082.186,20.996,-73.730,-423.828,-3.418,0.000
1586465082.190,-14.648,-84.961,-455.078,-9.277,0.000
1586465082.194,28.809,-84.961,-687.012,-15.137,0.000
1586465082.198,1.465,-93.750,-703.125,-6.836,0.000
1586465082.202,-75.195,-108.887,-463.379,5.371,0.000
1586465082.206,-51.270,-106.934,-428.223,1.465,0.000
1586465082.210,53.711,-107.910,-566.895,-23.438,0.000
1586465082.214,49.805,-103.516,-588.379,-20.020,0.000
1586465082.218,-25.879,-84.961,-452.637,-1.465,0.000
1586465082.222,-33.203,-79.590,-460.938,-7.812,0.000
1586465082.225,-0.977,-83.984,-551.758,-8.301,0.000
1586465082.229,34.668,-87.402,-575.684,-33.691,0.000
1586465082.233,3.418,-87.402,-496.094,-6.836,0.000
1586465082.237,-43.457,-84.473,-439.453,57.129,0.000
1586465082.241,-24.414,-87.891,-539.551,32.227,0.000
1586465082.245,28.320,-87.402,-557.617,-30.762,0.000
1586465082.249,32.715,-79.102,-461.426,-12.695,0.000
1586465082.253,18.555,-84.961,-486.816,4.395,0.000
1586465082.257,54.688,-89.844,-554.688,-13.672,0.000
1586465082.261,49.805,-83.984,-513.184,-13.184,0.000
1586465082.265,-5.859,-88.379,-485.352,-6.348,0.000
1586465082.268,-43.945,-101.562,-549.805,23.438,0.000
1586465082.272,-41.992,-103.516,-574.707,16.602,0.000
1586465082.276,51.758,-88.379,-497.559,-40.039,0.000
1586465082.280,114.258,-77.148,-541.992,-30.762,0.000
1586465082.284,-11.230,-91.797,-535.156,14.648,0.000
1586465082.288,-107.422,-96.680,-546.875,23.926,0.000
1586465082.292,-25.391,-83.496,-537.109,7.324,0.000
1586465082.296,54.688,-94.238,-550.293,-15.137,0.000
1586465082.300,-21.973,-101.562,-699.219,19.531,0.000
1586465082.304,-92.773,-86.914,-657.715,50.781,0.000
1586465082.308,-39.551,-84.473,-461.426,8.789,0.000
1586465082.311,39.551,-93.262,-572.266,-38.574,0.000
1586465082.315,33.203,-97.168,-604.492,-38.574,0.000
1586465082.319,-16.113,-85.449,-517.090,-9.766,0.000
1586465082.323,-12.695,-83.496,-482.422,-13.672,0.000
1586465082.327,-6.836,-103.027,-539.551,-9.766,0.000
1586465082.331,-44.434,-104.980,-594.238,-4.883,0.000
1586465082.335,-50.293,-88.867,-531.738,-9.766,0.000
1586465082.339,-7.324,-83.984,-475.098,-16.113,0.000
1586465082.343,0.000,-91.797,-489.258,-23.926,0.000
1586465082.347,-29.785,-89.355,-641.113,-18.066,0.000
1586465082.350,-48.340,-86.426,-486.816,7.812,0.000
1586465082.354,-50.293,-99.121,-359.863,9.766,0.000
1586465082.358,8.789,-96.191,-503.906,0.488,0.000
1586465082.362,46.387,-89.355,-592.773,-18.555,0.000
1586465082.366,3.906,-92.285,-468.262,-16.602,0.000
1586465082.370,-54.199,-90.332,-450.684,17.090,0.000
1586465082.374,-91.797,-99.609,-519.043,-3.906,0.000
1586465082.378,-42.969,-112.793,-554.199,-39.551,0.000
1586465082.382,40.039,-98.633,-573.730,-32.715,0.000
1586465082.386,35.156,-82.031,-492.676,-24.414,0.000
1586465082.390,-16.602,-89.844,-603.516,9.766,0.000
1586465082.393,2.930,-86.426,-681.641,0.488,0.000
1586465082.397,-42.969,-84.473,-495.117,-33.203,0.000
1586465082.401,-76.660,-84.473,-468.262,5.859,0.000
1586465082.405,-24.414,-81.543,-508.301,22.949,0.000
1586465082.409,3.906,-86.426,-508.301,-14.160,0.000
1586465082.413,22.461,-85.938,-579.102,-30.762,0.000
1586465082.417,-18.066,-96.680,-589.355,17.578,0.000
1586465082.421,-44.922,-97.656,-494.141,22.461,0.000
1586465082.425,-29.785,-85.449,-514.160,-7.324,0.000
1586465082.429,10.742,-85.938,-638.672,-30.762,0.000
1586465082.433,39.551,-81.055,-628.418,-40.527,0.000
1586465082.436,18.066,-74.707,-619.629,3.418,0.000
1586465082.440,17.090,-73.730,-534.668,15.137,0.000
1586465082.444,-8.789,-84.473,-511.230,-16.113,0.000
1586465082.448,-38.574,-88.379,-605.469,0.488,0.000
1586465082.452,-90.820,-84.961,-573.242,42.480,0.000
1586465082.456,-67.871,-79.102,-452.148,30.762,0.000
1586465082.460,30.273,-78.613,-512.207,-28.320,0.000
1586465082.464,9.277,-96.191,-625.977,-49.805,0.000
1586465082.468,-51.270,-105.469,-573.730,20.020,0.000
1586465082.472,-67.383,-95.215,-500.488,47.363,0.000
1586465082.475,-29.297,-93.750,-577.148,-4.395,0.000
1586465082.479,26.855,-97.168,-756.836,-46.387,0.000
1586465082.483,10.254,-90.332,-715.820,-16.602,0.000
1586465082.487,-75.195,-94.727,-487.793,29.785,0.000
1586465082.491,-83.008,-91.797,-570.312,17.578,0.000
1586465082.495,0.488,-84.473,-642.578,3.906,0.000
1586465082.499,33.691,-80.078,-558.594,5.371,0.000
1586465082.503,-17.090,-81.055,-473.633,0.000,0.000
1586465082.507,-1.953,-89.355,-522.461,-17.578,0.000
1586465082.511,88.867,-83.984,-617.676,-45.410,0.000
1586465082.515,3.906,-81.543,-580.078,-32.227,0.000
1586465082.518,-92.773,-86.914,-534.668,-6.348,0.000
1586465082.522,-33.203,-86.426,-583.008,-7.324,0.000
1586465082.526,21.973,-84.473,-666.016,-23.926,0.000
1586465082.530,33.203,-84.961,-640.625,-47.852,0.000
1586465082.534,-47.852,-88.379,-512.695,-0.977,0.000
1586465082.538,-111.816,-93.750,-562.988,23.438,0.000
1586465082.542,-45.898,-87.891,-620.117,-27.832,0.000
1586465082.546,43.945,-89.355,-624.023,-69.336,0.000
1586465082.550,19.043,-101.074,-657.227,-19.043,0.000
1586465082.554,-86.426,-103.516,-640.625,19.531,0.000
1586465082.558,-42.480,-93.750,-621.094,-8.301,0.000
1586465082.561,-7.812,-83.496,-618.652,-29.297,0.000
1586465082.565,-42.969,-82.031,-613.770,-13.184,0.000
1586465082.569,-55.176,-86.426,-687.988,15.625,0.000
1586465082.573,-3.906,-86.914,-702.148,11.230,0.000
1586465082.577,106.445,-78.125,-610.352,-22.461,0.000
1586465082.581,45.898,-82.520,-677.734,-42.480,0.000
1586465082.585,-129.395,-96.680,-681.641,-5.371,0.000
1586465082.589,-92.773,-90.332,-605.469,-2.441,0.000
1586465082.593,17.578,-77.148,-601.074,-55.664,0.000
1586465082.597,-50.293,-78.613,-688.965,-83.984,0.000
1586465082.600,-93.750,-72.754,-705.078,-57.617,0.000
1586465082.604,8.301,-52.734,-629.395,-68.359,0.000
1586465082.608,-9.277,-59.082,-614.746,-92.773,0.000
1586465082.612,-110.840,-81.055,-690.430,-83.008,0.000
1586465082.616,-87.402,-70.312,-700.195,-58.105,0.000
1586465082.620,-74.707,-47.363,-587.402,-51.758,0.000
1586465082.624,-50.781,-49.316,-552.734,-55.664,0.000
1586465082.628,7.812,-61.035,-678.223,-83.496,0.000
1586465082.632,-13.184,-69.824,-732.422,-78.613,0.000
1586465082.636,-31.738,-68.848,-578.125,-33.203,0.000
1586465082.640,16.602,-60.059,-535.156,-40.039,0.000
1586465082.643,40.527,-63.477,-688.477,-63.965,0.000
1586465082.647,41.504,-65.918,-712.891,-38.574,0.000
1586465082.651,41.016,-60.547,-546.387,-18.066,0.000
1586465082.655,7.812,-61.035,-517.578,-31.738,0.000
1586465082.659,-11.230,-71.777,-600.098,-25.391,0.000
1586465082.663,20.508,-74.219,-693.848,-43.945,0.000
1586465082.667,2.441,-68.848,-622.559,-27.832,0.000
1586465082.671,-8.789,-63.477,-530.762,-4.883,0.000
1586465082.675,13.672,-72.754,-668.945,-1.465,0.000
1586465082.679,36.133,-86.426,-759.766,2.930,0.000
1586465082.683,20.020,-77.148,-547.852,-23.438,0.000
1586465082.686,-18.066,-59.082,-519.043,-15.625,0.000
1586465082.690,1.953,-55.176,-586.426,19.531,0.000
1586465082.694,34.180,-72.266,-645.508,-0.977,0.000
1586465082.698,12.695,-85.449,-599.121,-16.113,0.000
1586465082.702,-42.480,-80.566,-524.902,2.930,0.000
1586465082.706,-20.996,-76.172,-545.898,-7.812,0.000
1586465082.710,32.715,-75.684,-611.816,-14.160,0.000
1586465082.714,44.922,-72.266,-607.422,-20.508,0.000
1586465082.718,-1.953,-73.730,-543.945,-14.160,0.000
1586465082.722,-28.320,-75.195,-614.258,-3.418,0.000
1586465082.725,13.184,-69.336,-562.988,-12.207,0.000
1586465082.729,55.664,-66.406,-513.672,-30.273,0.000
1586465082.733,25.391,-65.918,-543.457,-19.043,0.000
1586465082.737,-33.203,-67.871,-519.531,8.789,0.000
1586465082.741,-9.766,-71.289,-425.293,5.859,0.000
1586465082.745,35.645,-76.172,-481.934,0.488,0.000
1586465082.749,10.254,-71.289,-500.000,-7.812,0.000
1586465082.753,-31.738,-63.965,-471.191,-2.930,0.000
1586465082.757,3.906,-64.453,-509.766,-9.766,0.000
1586465082.761,63.965,-62.500,-573.730,-54.199,0.000
1586465082.765,-5.371,-70.801,-696.777,-34.180,0.000
1586465082.768,-82.520,-74.219,-687.988,2.930,0.000
1586465082.772,-54.199,-62.500,-431.152,-10.742,0.000
1586465082.776,16.602,-56.641,-472.168,-52.246,0.000
1586465082.780,44.434,-56.641,-581.543,-30.273,0.000
1586465082.784,-41.016,-67.383,-523.438,29.785,0.000
1586465082.788,-53.711,-67.871,-500.977,0.488,0.000
1586465082.792,-2.441,-59.082,-537.598,-27.344,0.000
1586465082.796,-10.254,-57.617,-534.668,-23.438,0.000
1586465082.800,-43.945,-58.594,-506.348,-26.855,0.000
1586465082.804,-62.988,-61.523,-511.230,-46.875,0.000
1586465082.808,-61.523,-70.312,-497.070,-41.504,0.000
1586465082.811,-41.504,-76.660,-588.867,-39.551,0.000
1586465082.815,-96.680,-70.801,-513.672,-46.875,0.000
1586465082.819,-173.828,-77.637,-423.828,3.906,0.000
1586465082.823,-159.180,-88.867,-555.664,1.953,0.000
1586465082.827,-61.035,-86.914,-647.461,-56.641,0.000
1586465082.831,-40.039,-79.102,-523.926,-36.133,0.000
1586465082.835,-88.379,-73.730,-476.562,-20.508,0.000
1586465082.839,-54.199,-75.195,-577.637,-13.672,0.000
1586465082.843,-21.973,-83.496,-659.668,-13.184,0.000
1586465082.847,-20.996,-86.914,-648.926,-38.574,0.000
1586465082.850,-42.480,-80.566,-606.445,-30.273,0.000
1586465082.854,-67.871,-81.055,-693.848,-8.301,0.000
1586465082.858,-28.320,-84.961,-741.211,15.625,0.000
1586465082.862,-3.906,-89.844,-570.801,8.301,0.000
1586465082.866,-20.508,-85.938,-553.711,-8.789,0.000
1586465082.870,-19.043,-82.031,-587.402,14.160,0.000
1586465082.874,1.465,-82.520,-516.113,12.207,0.000
1586465082.878,22.461,-82.031,-564.453,-7.324,0.000
1586465082.882,-13.672,-89.355,-646.973,11.719,0.000
1586465082.886,-41.504,-97.168,-560.059,20.996,0.000
1586465082.890,-11.230,-93.262,-483.398,24.414,0.000
1586465082.893,39.062,-90.820,-561.035,42.480,0.000
1586465082.897,63.477,-95.215,-616.699,81.543,0.000
1586465082.901,41.016,-95.703,-708.008,102.539,0.000
1586465082.905,47.852,-95.215,-644.043,86.914,0.000
1586465082.909,106.934,-92.773,-433.594,64.453,0.000
1586465082.913,132.812,-95.215,-543.457,75.684,0.000
1586465082.917,85.938,-101.074,-578.613,109.375,0.000
1586465082.921,60.059,-98.633,-435.547,84.961,0.000
1586465082.925,89.355,-95.215,-384.277,121.582,0.000
1586465082.929,94.238,-105.957,-543.457,173.828,0.000
1586465082.933,73.242,-106.934,-567.383,127.930,0.000
1586465082.936,50.293,-103.027,-393.555,97.168,0.000
1586465082.940,76.660,-105.469,-389.648,124.512,0.000
1586465082.944,140.137,-103.516,-577.637,149.414,0.000
1586465082.948,139.648,-96.680,-562.012,154.785,0.000
1586465082.952,90.332,-92.773,-250.977,158.203,0.000
1586465082.956,82.031,-92.285,-211.426,163.574,0.000
1586465082.960,126.953,-85.449,-331.543,176.270,0.000
1586465082.964,130.859,-79.102,-279.297,192.383,0.000
1586465082.968,66.406,-81.543,69.336,189.941,0.000
1586465082.972,48.828,-81.055,216.797,170.410,0.000
1586465082.975,104.004,-74.707,7.812,166.016,0.000
1586465082.979,160.156,-64.941,83.008,156.738,0.000
1586465082.983,147.461,-62.012,266.113,173.340,0.000
1586465082.987,24.902,-62.012,200.195,182.617,0.000
1586465082.991,-2.441,-59.570,19.043,167.969,0.000
1586465082.995,67.871,-58.105,19.043,164.062,0.000
1586465082.999,41.504,-51.758,207.520,128.906,0.000
1586465083.003,20.020,-52.734,168.457,94.238,0.000
1586465083.007,43.945,-56.152,-18.555,94.727,0.000
1586465083.011,85.938,-50.781,61.523,89.844,0.000
1586465083.015,100.586,-49.805,212.402,107.910,0.000
1586465083.018,12.207,-50.293,54.688,111.816,0.000
1586465083.022,-26.855,-49.316,-217.285,52.734,0.000
1586465083.026,44.434,-46.387,-6.836,38.574,0.000
1586465083.030,63.477,-43.945,176.270,45.410,0.000
1586465083.034,10.742,-47.363,-42.969,45.898,0.000
1586465083.038,-2.441,-42.969,-326.660,37.598,0.000
1586465083.042,21.973,-30.273,-281.738,18.555,0.000
1586465083.046,42.480,-24.414,15.625,26.855,0.000
1586465083.050,30.762,-25.391,-152.832,17.090,0.000
1586465083.054,-15.625,-26.367,-266.113,20.020,0.000
1586465083.058,-18.066,-18.555,206.543,26.855,0.000
1586465083.061,-3.418,-14.648,202.637,5.371,0.000
1586465083.065,-32.227,-21.973,190.918,31.250,0.000
1586465083.069,-70.312,-30.273,224.121,2.441,0.000
1586465083.073,-55.176,-31.250,250.977,-29.785,0.000
1586465083.077,-34.180,-39.062,279.297,2.930,0.000
1586465083.081,-42.969,-45.410,252.441,-6.836,0.000
1586465083.085,-53.711,-43.457,247.559,-47.363,0.000
1586465083.089,-90.820,-49.805,333.008,-57.617,0.000
1586465083.093,-68.359,-50.781,383.789,-24.902,0.000
1586465083.097,-39.062,-52.246,211.426,-14.648,0.000
1586465083.100,-85.449,-54.199,300.293,-55.176,0.000
1586465083.104,-117.188,-55.664,414.062,-75.195,0.000
1586465083.108,-74.707,-58.594,307.129,-71.289,0.000
1586465083.112,-55.664,-56.152,285.156,-45.898,0.000
1586465083.116,-110.352,-51.758,348.145,-79.590,0.000
1586465083.120,-127.441,-58.594,355.469,-111.816,0.000
1586465083.124,-114.746,-63.965,267.578,-83.008,0.000
1586465083.128,-75.195,-60.059,257.812,-56.152,0.000
1586465083.132,-83.496,-61.523,282.715,-69.336,0.000
1586465083.136,-121.094,-63.965,284.668,-124.512,0.000
1586465083.140,-121.582,-63.965,149.902,-136.719,0.000
1586465083.143,-103.027,-62.500,142.090,-92.285,0.000
1586465083.147,-78.613,-57.617,395.996,-69.824,0.000
1586465083.151,-102.051,-60.547,355.957,-112.793,0.000
1586465083.155,-150.879,-65.918,310.547,-121.094,0.000
1586465083.159,-125.977,-61.035,335.449,-86.914,0.000
1586465083.163,-101.074,-62.012,300.293,-63.477,0.000
1586465083.167,-139.648,-67.383,257.812,-83.496,0.000
1586465083.171,-166.016,-60.059,269.043,-160.156,0.000
1586465083.175,-144.531,-61.523,291.016,-141.602,0.000
1586465083.179,-104.980,-65.430,231.445,-81.543,0.000
1586465083.183,-133.301,-66.895,230.957,-87.402,0.000
1586465083.186,-172.363,-73.242,18.066,-116.699,0.000
1586465083.190,-161.621,-75.195,93.750,-145.020,0.000
1586465083.194,-149.414,-86.914,305.176,-133.301,0.000
1586465083.198,-158.691,-90.820,159.180,-127.441,0.000
1586465083.202,-180.664,-83.984,145.020,-166.992,0.000
1586465083.206,-197.266,-87.891,185.547,-153.809,0.000
1586465083.210,-145.508,-99.121,213.867,-132.324,0.000
1586465083.214,-127.441,-105.957,-41.992,-153.320,0.000
1586465083.218,-218.750,-110.840,-222.656,-190.918,0.000
1586465083.222,-269.043,-130.371,-206.055,-204.102,0.000
1586465083.225,-227.539,-141.113,-338.379,-168.945,0.000
1586465083.229,-179.199,-142.578,-507.324,-157.227,0.000
1586465083.233,-194.824,-144.531,-551.270,-190.918,0.000
1586465083.237,-229.980,-145.508,-333.496,-224.121,0.000
1586465083.241,-210.449,-148.926,-384.766,-213.867,0.000
1586465083.245,-182.617,-145.020,-502.930,-170.898,0.000
1586465083.249,-190.430,-140.625,-448.242,-176.270,0.000
1586465083.253,-214.844,-145.020,-453.125,-217.773,0.000
1586465083.257,-200.195,-152.832,-573.730,-232.422,0.000
1586465083.261,-179.199,-152.832,-585.449,-183.105,0.000
1586465083.265,-204.590,-152.344,-495.605,-164.551,0.000
1586465083.268,-214.355,-151.855,-531.738,-207.520,0.000
1586465083.272,-211.426,-153.809,-666.016,-216.797,0.000
1586465083.276,-198.242,-157.227,-658.691,-169.922,0.000
1586465083.280,-202.637,-152.344,-547.852,-163.086,0.000
1586465083.284,-242.676,-147.949,-511.230,-208.008,0.000
1586465083.288,-219.727,-149.414,-619.629,-231.445,0.000
1586465083.292,-181.641,-157.227,-713.867,-192.383,0.000
1586465083.296,-178.223,-159.180,-578.125,-160.156,0.000
1586465083.300,-177.734,-153.809,-522.461,-186.523,0.000
1586465083.304,-187.500,-149.902,-679.199,-210.938,0.000
1586465083.308,-174.805,-162.598,-711.426,-194.824,0.000
1586465083.311,-156.738,-168.945,-624.023,-158.691,0.000
1586465083.315,-177.246,-158.691,-675.781,-172.852,0.000
1586465083.319,-179.688,-152.832,-799.805,-222.656,0.000
1586465083.323,-169.434,-154.785,-776.855,-217.285,0.000
1586465083.327,-159.180,-155.273,-573.730,-172.852,0.000
1586465083.331,-159.668,-158.691,-606.934,-168.457,0.000
1586465083.335,-214.355,-161.621,-662.598,-182.617,0.000
1586465083.339,-217.773,-158.203,-604.492,-184.082,0.000
1586465083.343,-171.875,-155.762,-563.965,-148.438,0.000
1586465083.347,-171.875,-159.668,-572.754,-105.469,0.000
1586465083.350,-192.383,-160.645,-655.762,-140.137,0.000
1586465083.354,-204.102,-155.762,-637.695,-172.363,0.000
1586465083.358,-174.316,-150.391,-541.016,-149.902,0.000
1586465083.362,-138.672,-146.973,-542.480,-135.742,0.000
1586465083.366,-148.926,-145.508,-602.539,-154.785,0.000
1586465083.370,-168.457,-149.902,-578.613,-179.199,0.000
1586465083.374,-144.531,-154.785,-501.465,-159.668,0.000
1586465083.378,-126.465,-144.531,-504.883,-112.305,0.000
1586465083.382,-141.113,-141.113,-572.754,-136.230,0.000
1586465083.386,-156.738,-145.508,-459.961,-179.199,0.000
1586465083.390,-163.086,-144.043,-375.000,-153.320,0.000
1586465083.393,-127.930,-142.578,-451.660,-133.301,0.000
1586465083.397,-124.023,-140.625,-463.379,-134.766,0.000
1586465083.401,-132.324,-135.254,-361.328,-157.715,0.000
1586465083.405,-105.469,-134.766,-325.684,-144.531,0.000
1586465083.409,-108.887,-133.789,-375.977,-112.305,0.000
1586465083.413,-122.559,-142.090,-438.477,-104.004,0.000
1586465083.417,-114.258,-140.137,-365.234,-106.445,0.000
1586465083.421,-121.094,-126.953,-275.391,-126.953,0.000
1586465083.425,-128.418,-130.371,-448.730,-110.840,0.000
1586465083.429,-125.000,-139.648,-531.738,-84.473,0.000
1586465083.433,-125.488,-137.695,-332.031,-88.379,0.000
1586465083.436,-133.301,-135.254,-332.031,-100.586,0.000
1586465083.440,-127.441,-131.836,-361.816,-129.883,0.000
1586465083.444,-96.680,-125.977,-363.281,-99.121,0.000
1586465083.448,-85.449,-126.465,-338.379,-74.707,0.000
1586465083.452,-105.469,-127.441,-325.195,-117.188,0.000
1586465083.456,-112.305,-127.441,-365.234,-132.812,0.000
1586465083.460,-65.918,-128.418,-381.836,-75.684,0.000
1586465083.464,-59.570,-129.395,-305.176,-56.152,0.000
1586465083.468,-90.332,-121.582,-296.875,-135.742,0.000
1586465083.472,-87.402,-121.582,-408.691,-154.785,0.000
1586465083.475,-53.223,-125.000,-275.879,-93.262,0.000
1586465083.479,-56.152,-122.559,-114.258,-93.750,0.000
1586465083.483,-74.219,-121.582,-238.281,-144.531,0.000
1586465083.487,-74.707,-123.535,-337.402,-132.324,0.000
1586465083.491,-58.105,-124.512,-270.020,-105.469,0.000
1586465083.495,-37.109,-119.141,-202.148,-74.219,0.000
1586465083.499,-43.945,-114.258,-235.352,-84.961,0.000
1586465083.503,-68.359,-118.164,-279.297,-100.586,0.000
1586465083.507,-58.105,-130.371,-251.953,-86.426,0.000
1586465083.511,-47.363,-129.883,-274.414,-80.078,0.000
1586465083.515,-71.289,-126.953,-389.648,-69.336,0.000
1586465083.518,-95.215,-130.371,-428.223,-86.426,0.000
1586465083.522,-73.730,-125.000,-165.039,-91.797,0.000
1586465083.526,-57.617,-120.117,-225.586,-70.801,0.000
1586465083.530,-77.637,-120.117,-347.168,-51.270,0.000
1586465083.534,-78.125,-125.977,-312.988,-83.496,0.000
1586465083.538,-58.105,-127.441,-368.652,-86.426,0.000
1586465083.542,-33.691,-123.535,-410.645,-44.922,0.000
1586465083.546,-47.363,-125.000,-391.113,-16.113,0.000
1586465083.550,-77.148,-125.000,-409.180,-52.734,0.000
1586465083.554,-92.285,-119.141,-446.289,-108.398,0.000
1586465083.558,-81.055,-123.047,-450.195,-114.258,0.000
1586465083.561,-71.777,-127.930,-530.273,-92.285,0.000
1586465083.565,-92.285,-124.512,-489.746,-99.121,0.000
1586465083.569,-112.305,-127.441,-383.789,-110.352,0.000
1586465083.573,-103.027,-130.371,-450.684,-92.285,0.000
1586465083.577,-97.168,-133.301,-479.492,-79.590,0.000
1586465083.581,-103.516,-137.207,-378.418,-79.102,0.000
1586465083.585,-114.746,-131.348,-368.652,-113.281,0.000
1586465083.589,-115.723,-138.184,-479.004,-108.887,0.000
1586465083.593,-94.727,-152.344,-432.617,-81.543,0.000
1586465083.597,-96.680,-152.344,-352.539,-52.734,0.000
1586465083.600,-90.820,-148.926,-377.441,-81.543,0.000
1586465083.604,-106.934,-149.414,-468.262,-125.000,0.000
1586465083.608,-106.445,-152.832,-498.535,-73.242,0.000
1586465083.612,-107.422,-161.133,-148.926,-18.066,0.000
1586465083.616,-108.887,-165.527,94.727,-16.602,0.000
1586465083.620,-93.262,-158.203,37.598,-39.551,0.000
1586465083.624,-85.938,-150.879,30.273,-62.500,0.000
1586465083.628,-73.730,-154.297,203.613,-47.363,0.000
1586465083.632,-65.430,-156.738,64.941,-4.395,0.000
1586465083.636,-98.633,-151.855,-196.289,-52.734,0.000
1586465083.640,-72.266,-150.879,-93.750,-81.055,0.000
1586465083.643,-109.375,-150.879,-351.074,-106.934,0.000
1586465083.647,-244.629,-150.879,-855.469,-181.152,0.000
1586465083.651,-234.375,-147.461,-861.328,-190.430,0.000
1586465083.655,-184.570,-135.742,-783.691,-145.508,0.000
1586465083.659,-144.531,-137.695,-731.445,-95.703,0.000
1586465083.663,-134.766,-142.090,-792.969,-68.848,0.000
1586465083.667,-129.395,-140.625,-844.238,-66.895,0.000
1586465083.671,-104.980,-140.625,-717.285,-99.609,0.000
1586465083.675,-86.426,-132.324,-593.262,-71.777,0.000
1586465083.679,-96.191,-127.441,-673.340,-28.809,0.000
1586465083.683,-81.055,-125.977,-711.426,-37.598,0.000
1586465083.686,-69.336,-120.605,-553.711,-47.852,0.000
1586465083.690,-69.824,-131.348,-486.328,-28.320,0.000
1586465083.694,-66.406,-133.789,-671.387,25.879,0.000
1586465083.698,-62.988,-113.770,-693.848,10.254,0.000
1586465083.702,-37.598,-104.492,-484.863,-50.781,0.000
1586465083.706,-35.645,-107.422,-504.883,-45.898,0.000
1586465083.710,-48.340,-106.934,-531.250,-4.395,0.000
1586465083.714,-38.574,-103.027,-513.672,-5.859,0.000
1586465083.718,-23.438,-103.516,-492.676,-42.969,0.000
1586465083.722,-12.695,-108.887,-545.898,-60.059,0.000
1586465083.725,-18.555,-112.305,-670.410,-15.137,0.000
1586465083.729,-34.668,-112.305,-733.887,60.547,0.000
1586465083.733,-27.832,-105.469,-730.957,59.570,0.000
1586465083.737,-29.785,-96.191,-734.375,0.000,0.000
1586465083.741,-18.555,-91.309,-792.480,-52.734,0.000
1586465083.745,-7.812,-87.402,-753.906,-52.246,0.000
1586465083.749,12.207,-80.078,-651.855,-62.012,0.000
1586465083.753,14.160,-76.660,-671.387,-67.383,0.000
1586465083.757,7.812,-86.426,-714.844,-32.227,0.000
1586465083.761,10.254,-88.867,-603.516,21.484,0.000
1586465083.765,9.766,-87.891,-511.230,39.062,0.000
1586465083.768,20.020,-90.332,-563.965,2.441,0.000
1586465083.772,17.578,-85.449,-607.910,-12.207,0.000
1586465083.776,21.973,-74.707,-457.520,49.316,0.000
1586465083.780,11.230,-75.195,-386.719,28.809,0.000
1586465083.784,18.066,-90.332,-456.543,-18.066,0.000
1586465083.788,41.504,-82.031,-480.469,20.996,0.000
1586465083.792,2.930,-68.359,-381.836,45.898,0.000
1586465083.796,-33.691,-68.359,-261.230,-0.488,0.000
1586465083.800,-33.203,-67.871,-453.613,-23.926,0.000
1586465083.804,-40.039,-64.941,-525.879,3.418,0.000
1586465083.808,-20.508,-69.336,-271.484,20.996,0.000
1586465083.811,-45.898,-78.125,-387.207,21.973,0.000
1586465083.815,-79.590,-78.125,-508.301,-45.898,0.000
1586465083.819,-51.270,-82.031,-557.129,-83.008,0.000
1586465083.823,-54.199,-81.543,-577.637,-67.871,0.000
1586465083.827,-105.469,-85.938,-570.312,-37.598,0.000
1586465083.831,-98.633,-83.008,-626.953,-58.594,0.000
1586465083.835,-51.758,-74.219,-642.090,-104.980,0.000
1586465083.839,-49.805,-75.195,-559.570,-74.219,0.000
1586465083.843,-60.059,-74.219,-538.574,-8.789,0.000
1586465083.847,-61.523,-76.660,-603.027,7.812,0.000
1586465083.850,-51.758,-75.195,-460.449,-8.301,0.000
1586465083.854,-36.621,-63.477,-350.586,-4.883,0.000
1586465083.858,-35.645,-65.430,-455.566,22.949,0.000
1586465083.862,-49.316,-71.289,-493.652,49.805,0.000
1586465083.866,-39.551,-75.195,-385.254,18.555,0.000
1586465083.870,-3.418,-71.777,-332.520,-34.180,0.000
1586465083.874,-10.742,-63.477,-467.773,-22.949,0.000
1586465083.878,-48.340,-66.406,-574.707,9.766,0.000
1586465083.882,-33.691,-62.988,-442.871,-6.836,0.000
1586465083.886,-3.906,-62.012,-391.602,-35.645,0.000
1586465083.890,11.719,-65.918,-540.039,-39.551,0.000
1586465083.893,-12.695,-62.988,-589.844,2.930,0.000
1586465083.897,-29.785,-63.965,-339.844,43.945,0.000
1586465083.901,0.000,-67.871,-407.227,13.184,0.000
1586465083.905,17.578,-64.941,-506.836,-16.113,0.000
1586465083.909,20.508,-63.965,-434.570,-10.742,0.000
1586465083.913,1.465,-69.336,-508.301,8.301,0.000
1586465083.917,1.465,-65.430,-591.797,5.371,0.000
1586465083.921,22.949,-60.547,-555.176,16.113,0.000
1586465083.925,14.648,-56.641,-507.324,27.832,0.000
1586465083.929,-18.555,-53.711,-559.082,24.902,0.000
1586465083.933,12.207,-53.223,-584.473,35.645,0.000
1586465083.936,43.945,-53.223,-626.465,-7.324,0.000
1586465083.940,34.180,-56.152,-541.992,-10.742,0.000
1586465083.944,3.418,-60.547,-420.410,36.621,0.000
1586465083.948,33.691,-61.035,-483.887,14.160,0.000
1586465083.952,75.684,-61.523,-500.488,-44.922,0.000
1586465083.956,53.711,-60.059,-394.531,-37.598,0.000
1586465083.960,19.043,-61.523,-384.766,18.555,0.000
1586465083.964,-10.742,-63.477,-517.578,27.832,0.000
1586465083.968,15.137,-60.547,-484.863,28.320,0.000
1586465083.972,60.059,-61.035,-365.234,26.855,0.000
1586465083.975,33.691,-64.941,-439.453,52.246,0.000
1586465083.979,-22.461,-65.430,-599.121,57.129,0.000
1586465083.983,10.254,-64.453,-657.227,18.555,0.000
1586465083.987,51.270,-62.012,-447.266,3.906,0.000
1586465083.991,25.879,-62.988,-417.969,46.387,0.000
1586465083.995,-16.113,-60.059,-502.441,68.848,0.000
1586465083.999,3.906,-61.035,-480.957,32.227,0.000
1586465084.003,38.574,-65.430,-422.852,18.555,0.000
1586465084.007,38.086,-63.477,-476.562,36.133,0.000
1586465084.011,-10.742,-65.918,-499.512,37.598,0.000
1586465084.015,-25.879,-65.918,-413.086,-12.207,0.000
1586465084.018,25.391,-65.430,-416.016,-1.953,0.000
1586465084.022,26.855,-75.684,-437.988,8.301,0.000
1586465084.026,-13.672,-86.426,-538.086,-0.977,0.000
1586465084.030,-33.691,-85.938,-477.539,17.578,0.000
1586465084.034,-20.020,-83.008,-298.828,12.207,0.000
1586465084.038,14.648,-95.703,-365.234,-4.395,0.000
1586465084.042,5.859,-105.469,-388.672,-21.973,0.000
1586465084.046,-35.645,-95.703,-292.480,-18.555,0.000
1586465084.050,-17.090,-100.586,-284.180,-0.977,0.000
1586465084.054,-4.883,-114.258,-372.070,4.395,0.000
1586465084.058,-28.809,-119.629,-413.086,-18.066,0.000
1586465084.061,-71.289,-121.582,-329.102,-9.766,0.000
1586465084.065,-67.383,-124.023,-332.520,-0.488,0.000
1586465084.069,-17.578,-132.324,-519.531,-34.668,0.000
1586465084.073,-8.789,-140.625,-570.801,-60.547,0.000
1586465084.077,-59.570,-137.207,-384.277,-50.781,0.000
1586465084.081,-85.449,-132.324,-478.027,-41.992,0.000
1586465084.085,-31.250,-127.441,-540.039,-63.477,0.000
1586465084.089,-12.695,-126.465,-507.812,-64.941,0.000
1586465084.093,-38.574,-131.836,-541.504,-29.785,0.000
1586465084.097,-53.711,-136.719,-615.723,-21.484,0.000
1586465084.100,-37.109,-139.648,-718.750,-35.156,0.000
1586465084.104,11.719,-135.742,-687.012,-52.734,0.000
1586465084.108,-6.836,-133.789,-628.906,-74.219,0.000
1586465084.112,-70.801,-140.625,-737.305,-41.504,0.000
1586465084.116,-46.875,-138.672,-812.500,-49.316,0.000
1586465084.120,9.277,-135.742,-767.090,-63.965,0.000
1586465084.124,6.348,-139.160,-766.602,-42.480,0.000
1586465084.128,-41.016,-137.207,-850.586,-24.414,0.000
1586465084.132,-34.668,-133.301,-901.855,-10.742,0.000
1586465084.136,18.066,-125.488,-871.582,13.672,0.000
1586465084.140,27.344,-121.582,-892.090,-16.113,0.000
1586465084.143,-16.113,-115.234,-932.129,-65.918,0.000
1586465084.147,-10.254,-107.422,-944.336,-75.195,0.000
1586465084.151,9.766,-105.469,-903.809,-87.891,0.000
1586465084.155,20.508,-104.492,-899.902,-87.891,0.000
1586465084.159,8.789,-103.516,-926.758,-48.828,0.000
1586465084.163,-25.391,-104.004,-962.402,-9.277,0.000
1586465084.167,0.000,-97.168,-950.195,-26.367,0.000
1586465084.171,15.625,-91.797,-911.621,-47.852,0.000
1586465084.175,-1.953,-90.820,-956.055,-31.250,0.000
1586465084.179,-33.691,-86.914,-983.887,-3.418,0.000
1586465084.183,-25.391,-80.566,-918.457,-3.906,0.000
1586465084.186,-0.977,-81.055,-928.223,-63.965,0.000
1586465084.190,-3.418,-75.684,-953.613,-86.914,0.000
1586465084.194,-38.574,-71.289,-945.801,-27.344,0.000
1586465084.198,-36.133,-69.824,-962.402,-15.137,0.000
1586465084.202,19.043,-68.359,-952.148,-44.434,0.000
1586465084.206,32.715,-68.848,-946.289,-55.664,0.000
1586465084.210,2.441,-65.918,-965.332,-25.391,0.000
1586465084.214,-23.926,-62.012,-936.523,27.344,0.000
1586465084.218,-7.324,-67.383,-930.664,3.906,0.000
1586465084.222,21.484,-67.871,-936.035,-28.320,0.000
1586465084.225,20.020,-59.570,-908.691,-12.695,0.000
1586465084.229,-6.348,-55.664,-879.395,-25.879,0.000
1586465084.233,36.133,-47.363,-929.199,-59.082,0.000
1586465084.237,84.473,-43.457,-942.871,-85.449,0.000
1586465084.241,45.410,-41.992,-857.422,-55.176,0.000
1586465084.245,20.020,-36.621,-834.473,-20.996,0.000
1586465084.249,39.551,-34.180,-852.539,-3.418,0.000
1586465084.253,69.824,-26.367,-868.652,1.953,0.000
1586465084.257,56.152,-15.625,-854.980,18.555,0.000
1586465084.261,22.461,-16.602,-823.242,28.809,0.000
1586465084.265,31.250,-17.090,-891.113,33.691,0.000
1586465084.268,64.453,-11.719,-885.742,13.184,0.000
1586465084.272,83.496,-5.371,-719.727,14.648,0.000
1586465084.276,68.359,-1.465,-725.098,57.129,0.000
1586465084.280,48.340,0.977,-750.000,68.359,0.000
1586465084.284,74.219,3.906,-695.312,42.480,0.000
1586465084.288,91.797,7.324,-720.215,13.184,0.000
1586465084.292,79.590,9.277,-728.027,50.293,0.000
1586465084.296,60.547,3.418,-645.508,119.141,0.000
1586465084.300,89.355,2.441,-626.953,93.262,0.000
1586465084.304,109.375,3.906,-660.645,12.695,0.000
1586465084.308,90.332,4.883,-630.859,10.742,0.000
1586465084.311,83.008,8.301,-660.645,53.223,0.000
1586465084.315,96.680,11.230,-653.320,51.758,0.000
1586465084.319,90.332,10.254,-551.758,35.645,0.000
1586465084.323,95.703,8.301,-536.133,66.895,0.000
1586465084.327,105.469,14.648,-537.109,95.703,0.000
1586465084.331,96.191,11.230,-435.547,56.152,0.000
1586465084.335,110.840,4.883,-408.691,34.180,0.000
1586465084.339,121.094,5.859,-481.934,49.805,0.000
1586465084.343,113.281,3.906,-475.586,63.965,0.000
1586465084.347,88.379,-3.906,-382.812,109.375,0.000
1586465084.350,114.746,5.859,-465.820,106.934,0.000
1586465084.354,139.648,16.602,-581.543,88.867,0.000
1586465084.358,106.445,12.207,-540.039,58.594,0.000
1586465084.362,90.820,10.742,-274.414,44.922,0.000
1586465084.366,81.055,6.836,-257.812,74.219,0.000
1586465084.370,117.676,5.371,-293.457,59.570,0.000
1586465084.374,140.625,6.836,-294.434,57.617,0.000
1586465084.378,74.707,8.301,-25.879,115.234,0.000
1586465084.382,87.402,9.277,165.527,83.008,0.000
1586465084.386,116.211,11.230,154.297,39.062,0.000
1586465084.390,83.496,8.789,278.320,49.805,0.000
1586465084.393,52.246,4.395,324.219,82.031,0.000
1586465084.397,29.785,4.395,353.516,74.707,0.000
1586465084.401,64.453,3.906,262.207,30.762,0.000
1586465084.405,80.078,-5.371,381.348,-14.160,0.000
1586465084.409,31.738,-19.043,579.102,0.977,0.000
1586465084.413,-16.602,-40.527,572.754,49.805,0.000
1586465084.417,-30.762,-65.918,596.680,22.949,0.000
1586465084.421,-51.270,-89.844,643.066,-9.277,0.000
1586465084.425,-67.383,-108.398,679.199,-103.516,0.000
1586465084.429,-153.320,-141.113,650.879,-182.129,0.000
1586465084.433,-221.680,-187.012,614.746,-182.617,0.000
1586465084.436,-232.422,-219.727,666.016,-227.051,0.000
1586465084.440,-284.668,-259.766,714.355,-254.395,0.000
1586465084.444,-362.305,-308.105,624.023,-258.301,0.000
1586465084.448,-408.203,-350.586,617.188,-308.594,0.000
1586465084.452,-424.805,-386.230,713.867,-380.371,0.000
1586465084.456,-460.449,-414.551,720.703,-424.316,0.000
1586465084.460,-524.902,-451.660,697.266,-430.176,0.000
1586465084.464,-587.402,-495.117,726.074,-480.469,0.000
1586465084.468,-602.051,-526.855,760.254,-597.656,0.000
1586465084.472,-631.348,-553.223,746.094,-634.277,0.000
1586465084.475,-662.598,-573.242,749.512,-621.094,0.000
1586465084.479,-700.684,-586.914,796.875,-609.375,0.000
1586465084.483,-692.383,-606.934,786.621,-644.531,0.000
1586465084.487,-674.805,-623.047,734.863,-669.922,0.000
1586465084.491,-691.895,-629.883,699.707,-639.160,0.000
1586465084.495,-696.777,-634.766,682.617,-612.793,0.000
1586465084.499,-689.453,-637.207,681.641,-660.156,0.000
1586465084.503,-693.359,-633.301,647.949,-710.938,0.000
1586465084.507,-693.359,-627.930,591.797,-699.219,0.000
1586465084.511,-703.125,-618.164,649.902,-661.621,0.000
1586465084.515,-677.734,-608.887,661.621,-664.062,0.000
1586465084.518,-636.230,-598.633,552.734,-675.781,0.000
1586465084.522,-629.883,-584.473,518.555,-667.480,0.000
1586465084.526,-604.004,-571.289,544.434,-615.723,0.000
1586465084.530,-608.887,-560.547,514.648,-580.566,0.000
1586465084.534,-605.957,-550.293,363.770,-601.074,0.000
1586465084.538,-554.688,-537.598,255.371,-629.395,0.000
1586465084.542,-534.668,-514.648,315.918,-590.332,0.000
1586465084.546,-537.598,-494.629,395.508,-531.738,0.000
1586465084.550,-509.277,-480.469,-59.570,-541.992,0.000
1586465084.554,-470.215,-459.961,-353.516,-534.668,0.000
1586465084.558,-454.590,-438.477,91.309,-483.398,0.000
1586465084.561,-456.055,-422.852,166.992,-429.688,0.000
1586465084.565,-439.453,-410.156,-187.988,-427.734,0.000
1586465084.569,-415.527,-400.879,-450.684,-443.359,0.000
1586465084.573,-381.836,-383.789,-401.855,-435.059,0.000
1586465084.577,-364.258,-355.957,-343.262,-395.508,0.000
1586465084.581,-360.840,-333.008,-441.895,-360.840,0.000
1586465084.585,-319.336,-318.848,-628.906,-387.207,0.000
1586465084.589,-288.086,-302.246,-571.777,-388.672,0.000
1586465084.593,-314.453,-281.250,-466.309,-353.516,0.000
1586465084.597,-315.918,-264.160,-548.828,-318.848,0.000
1586465084.600,-286.133,-249.023,-509.766,-338.867,0.000
1586465084.604,-277.832,-235.840,-425.293,-371.094,0.000
1586465084.608,-254.395,-226.562,-473.145,-317.383,0.000
1586465084.612,-249.512,-214.355,-397.461,-268.555,0.000
1586465084.616,-257.324,-207.031,-337.891,-296.387,0.000
1586465084.620,-243.164,-197.266,-350.586,-330.078,0.000
1586465084.624,-227.539,-178.223,-344.727,-287.109,0.000
1586465084.628,-224.121,-160.645,-67.871,-231.934,0.000
1586465084.632,-228.516,-147.949,168.457,-255.371,0.000
1586465084.636,-234.375,-140.625,-35.156,-295.410,0.000
1586465084.640,-224.121,-133.301,-84.473,-284.180,0.000
1586465084.643,-222.168,-123.047,73.730,-238.770,0.000
1586465084.647,-215.332,-107.910,375.000,-248.535,0.000
1586465084.651,-212.891,-104.492,309.570,-274.902,0.000
1586465084.655,-225.098,-100.098,310.547,-284.180,0.000
1586465084.659,-205.078,-79.590,434.570,-265.625,0.000
1586465084.663,-213.379,-72.754,414.062,-263.672,0.000
1586465084.667,-254.395,-77.148,316.895,-281.250,0.000
1586465084.671,-279.785,-74.219,345.215,-279.785,0.000
1586465084.675,-258.789,-56.152,460.938,-260.254,0.000
1586465084.679,-230.957,-41.504,493.164,-246.094,0.000
1586465084.683,-239.258,-39.062,433.594,-277.344,0.000
1586465084.686,-259.766,-41.016,394.043,-298.340,0.000
1586465084.690,-259.277,-34.180,505.859,-286.133,0.000
1586465084.694,-222.656,-25.879,608.398,-269.043,0.000
1586465084.698,-244.629,-24.902,572.266,-274.414,0.000
1586465084.702,-305.664,-28.320,323.242,-311.035,0.000
1586465084.706,-288.574,-26.367,386.719,-321.777,0.000
1586465084.710,-261.719,-15.137,631.836,-270.508,0.000
1586465084.714,-285.645,-11.719,517.090,-289.551,0.000
1586465084.718,-304.688,-10.254,445.312,-360.352,0.000
1586465084.722,-274.902,-1.953,478.516,-365.234,0.000
1586465084.725,-264.160,5.371,516.602,-313.965,0.000
1586465084.729,-280.273,1.465,381.348,-295.410,0.000
1586465084.733,-291.016,1.465,313.477,-350.098,0.000
1586465084.737,-307.617,15.137,458.984,-369.629,0.000
1586465084.741,-298.340,17.090,491.211,-337.402,0.000
1586465084.745,-305.664,15.137,510.742,-320.801,0.000
1586465084.749,-327.148,21.973,482.422,-351.562,0.000
1586465084.753,-338.867,21.973,435.547,-390.137,0.000
1586465084.757,-327.637,14.160,374.023,-388.184,0.000
1586465084.761,-313.965,13.184,426.270,-323.730,0.000
1586465084.765,-335.449,8.301,441.406,-332.520,0.000
1586465084.768,-374.512,0.977,282.227,-395.508,0.000
1586465084.772,-370.117,-2.930,226.074,-391.602,0.000
1586465084.776,-339.355,1.953,157.715,-341.309,0.000
1586465084.780,-346.191,6.348,255.859,-325.684,0.000
1586465084.784,-385.254,6.348,328.613,-371.582,0.000
1586465084.788,-399.902,-0.977,206.543,-392.578,0.000
1586465084.792,-364.746,-3.418,313.477,-379.395,0.000
1586465084.796,-348.633,5.859,420.410,-360.352,0.000
1586465084.800,-388.184,-0.977,359.863,-390.625,0.000
1586465084.804,-408.691,-3.906,180.664,-419.434,0.000
1586465084.808,-385.742,9.277,229.004,-404.785,0.000
1586465084.811,-357.422,12.695,388.672,-353.516,0.000
1586465084.815,-375.000,18.555,343.262,-366.699,0.000
1586465084.819,-412.109,19.043,-24.902,-438.965,0.000
1586465084.823,-388.184,18.555,-152.832,-439.941,0.000
1586465084.827,-349.121,25.391,264.160,-365.234,0.000
1586465084.831,-365.723,24.414,312.012,-360.840,0.000
1586465084.835,-409.180,23.926,15.625,-408.203,0.000
1586465084.839,-415.527,25.391,-12.695,-395.508,0.000
1586465084.843,-369.629,10.742,276.367,-346.680,0.000
1586465084.847,-366.211,8.789,258.301,-326.172,0.000
1586465084.850,-406.738,24.902,-104.980,-386.230,0.000
1586465084.854,-415.039,27.832,-263.184,-415.039,0.000
1586465084.858,-381.836,22.461,138.672,-372.070,0.000
1586465084.862,-345.703,26.367,252.930,-332.520,0.000
1586465084.866,-372.070,23.926,-112.793,-365.234,0.000
1586465084.870,-412.109,19.043,-329.102,-407.227,0.000
1586465084.874,-364.258,24.902,-113.281,-375.977,0.000
1586465084.878,-343.750,21.484,175.781,-316.406,0.000
1586465084.882,-365.234,18.555,20.508,-328.125,0.000
1586465084.886,-384.766,26.367,-192.871,-384.766,0.000
1586465084.890,-380.371,27.832,-70.801,-372.070,0.000
1586465084.893,-319.824,22.461,129.883,-312.988,0.000
1586465084.897,-298.340,16.113,143.066,-320.801,0.000
1586465084.901,-361.328,16.602,123.535,-386.719,0.000
1586465084.905,-370.605,22.461,21.973,-386.230,0.000
1586465084.909,-309.570,30.762,65.918,-337.891,0.000
1586465084.913,-305.664,23.926,-48.828,-320.312,0.000
1586465084.917,-343.262,23.926,52.246,-353.516,0.000
1586465084.921,-348.633,34.180,276.367,-378.418,0.000
1586465084.925,-315.430,37.598,125.977,-338.379,0.000
1586465084.929,-300.781,44.922,177.734,-311.523,0.000
1586465084.933,-342.285,47.363,346.191,-328.613,0.000
1586465084.936,-368.164,43.457,232.910,-356.445,0.000
1586465084.940,-343.750,46.387,151.855,-351.562,0.000
1586465084.944,-293.457,51.270,262.207,-306.152,0.000
1586465084.948,-309.570,53.711,335.449,-304.199,0.000
1586465084.952,-360.840,55.664,211.914,-340.332,0.000
1586465084.956,-327.148,67.383,125.488,-345.703,0.000
1586465084.960,-270.020,81.543,233.887,-296.875,0.000
1586465084.964,-271.484,82.520,318.359,-282.227,0.000
1586465084.968,-326.172,80.566,230.957,-345.703,0.000
1586465084.972,-353.027,82.031,-63.965,-366.699,0.000
1586465084.975,-307.617,94.238,145.996,-308.594,0.000
1586465084.979,-303.223,103.027,455.078,-301.758,0.000
1586465084.983,-356.934,102.539,173.340,-368.652,0.000
1586465084.987,-388.672,104.004,55.664,-396.973,0.000
1586465084.991,-343.262,108.887,240.234,-361.328,0.000
1586465084.995,-301.758,108.398,355.469,-294.922,0.000
1586465084.999,-320.801,107.910,139.160,-328.613,0.000
1586465085.003,-345.215,116.211,-169.922,-412.598,0.000
1586465085.007,-329.590,115.723,-97.168,-382.324,0.000
1586465085.011,-280.273,123.047,210.938,-320.312,0.000
1586465085.015,-292.480,134.277,42.969,-311.035,0.000
1586465085.018,-366.211,123.047,-389.160,-338.867,0.000
1586465085.022,-337.402,124.023,-274.902,-354.492,0.000
1586465085.026,-260.742,140.137,99.121,-314.941,0.000
1586465085.030,-275.391,148.438,233.398,-285.156,0.000
1586465085.034,-326.660,145.020,120.605,-329.102,0.000
1586465085.038,-346.191,134.766,-101.074,-347.656,0.000
1586465085.042,-312.012,137.207,-163.574,-295.410,0.000
1586465085.046,-266.113,140.137,72.754,-280.273,0.000
1586465085.050,-302.734,132.812,81.055,-320.801,0.000
1586465085.054,-332.520,128.906,-236.816,-345.215,0.000
1586465085.058,-274.902,131.348,-363.281,-288.086,0.000
1586465085.061,-245.605,126.953,-85.938,-234.863,0.000
1586465085.065,-274.414,127.441,89.355,-280.762,0.000
1586465085.069,-300.293,134.766,-101.074,-323.730,0.000
1586465085.073,-281.738,129.883,-264.160,-299.316,0.000
1586465085.077,-225.098,132.812,-220.703,-227.539,0.000
1586465085.081,-213.379,146.484,3.906,-223.633,0.000
1586465085.085,-258.301,153.809,-54.199,-281.738,0.000
1586465085.089,-262.207,157.715,-291.504,-285.156,0.000
1586465085.093,-208.496,151.855,-23.438,-219.238,0.000
1586465085.097,-198.242,147.461,262.207,-199.707,0.000
1586465085.100,-248.047,146.484,8.789,-267.090,0.000
1586465085.104,-269.531,142.578,-383.301,-278.809,0.000
1586465085.108,-231.445,145.508,-273.438,-224.121,0.000
1586465085.112,-202.637,140.625,259.766,-187.012,0.000
1586465085.116,-239.258,137.695,223.633,-248.535,0.000
1586465085.120,-281.250,146.484,-118.652,-294.922,0.000
1586465085.124,-235.840,145.508,35.156,-271.484,0.000
1586465085.128,-184.570,142.090,353.516,-235.840,0.000
1586465085.132,-218.750,139.160,175.781,-262.207,0.000
1586465085.136,-258.789,145.020,-170.898,-275.391,0.000
1586465085.140,-244.629,145.020,-154.297,-250.977,0.000
1586465085.143,-210.449,145.508,187.500,-249.512,0.000
1586465085.147,-209.473,146.973,172.363,-233.887,0.000
1586465085.151,-260.254,149.414,-155.762,-260.742,0.000
1586465085.155,-259.277,149.414,-296.387,-290.527,0.000
1586465085.159,-199.219,148.438,-8.789,-236.816,0.000
1586465085.163,-204.102,150.879,142.090,-212.402,0.000
1586465085.167,-268.066,149.414,-301.270,-269.531,0.000
1586465085.171,-271.973,157.715,-483.887,-287.109,0.000
1586465085.175,-236.816,158.691,-328.125,-256.836,0.000
1586465085.179,-224.121,141.113,-395.020,-204.590,0.000
1586465085.183,-247.070,141.602,-618.652,-213.867,0.000
1586465085.186,-267.090,157.715,-533.203,-272.461,0.000
1586465085.190,-232.910,158.203,-429.199,-255.859,0.000
1586465085.194,-181.641,146.484,-518.555,-201.660,0.000
1586465085.198,-199.219,143.555,-603.516,-211.914,0.000
1586465085.202,-243.652,152.832,-574.707,-259.766,0.000
1586465085.206,-233.398,160.645,-504.883,-254.395,0.000
1586465085.210,-193.359,158.203,-568.359,-205.566,0.000
1586465085.214,-175.293,161.133,-662.109,-178.223,0.000
1586465085.218,-195.801,166.016,-579.590,-229.492,0.000
1586465085.222,-189.453,173.828,-637.695,-266.602,0.000
1586465085.225,-142.090,176.758,-637.695,-212.402,0.000
1586465085.229,-135.254,170.898,-564.453,-141.113,0.000
1586465085.233,-173.828,167.480,-623.047,-190.430,0.000
1586465085.237,-187.012,161.133,-763.672,-229.492,0.000
1586465085.241,-126.465,164.062,-778.320,-168.945,0.000
1586465085.245,-79.590,180.664,-626.953,-124.023,0.000
1586465085.249,-109.375,185.059,-679.688,-140.137,0.000
1586465085.253,-138.672,171.875,-857.910,-176.270,0.000
1586465085.257,-108.398,173.828,-838.867,-152.344,0.000
1586465085.261,-56.641,172.363,-670.898,-95.215,0.000
1586465085.265,-51.758,172.363,-607.422,-100.098,0.000
1586465085.268,-98.633,179.199,-794.434,-131.836,0.000
1586465085.272,-87.402,174.805,-824.219,-100.586,0.000
1586465085.276,-23.438,171.387,-582.520,-62.500,0.000
1586465085.280,-44.922,159.180,-497.559,-69.824,0.000
1586465085.284,-101.562,145.508,-672.852,-129.883,0.000
1586465085.288,-102.539,138.184,-776.855,-143.066,0.000
1586465085.292,-62.988,133.301,-611.328,-98.145,0.000
1586465085.296,-64.941,125.000,-430.176,-82.031,0.000
1586465085.300,-89.844,125.000,-657.227,-110.840,0.000
1586465085.304,-112.793,114.258,-811.523,-125.488,0.000
1586465085.308,-86.914,101.562,-539.551,-93.750,0.000
1586465085.311,-43.457,104.980,-466.797,-66.406,0.000
1586465085.315,-67.871,108.398,-624.512,-89.355,0.000
1586465085.319,-102.051,110.352,-771.484,-114.746,0.000
1586465085.323,-78.613,109.863,-709.961,-115.723,0.000
1586465085.327,-36.621,103.027,-567.383,-70.312,0.000
1586465085.331,-51.270,104.004,-639.160,-63.965,0.000
1586465085.335,-78.125,113.281,-780.762,-120.605,0.000
1586465085.339,-70.312,115.234,-724.609,-107.910,0.000
1586465085.343,-25.391,113.281,-584.473,-47.363,0.000
1586465085.347,-15.137,102.539,-563.965,-41.016,0.000
1586465085.350,-75.684,97.656,-638.184,-83.008,0.000
1586465085.354,-75.195,104.492,-634.277,-89.844,0.000
1586465085.358,-17.090,91.309,-562.988,-49.805,0.000
1586465085.362,-22.461,75.684,-554.688,-23.438,0.000
1586465085.366,-87.891,75.684,-546.387,-54.199,0.000
1586465085.370,-119.629,75.195,-560.547,-83.984,0.000
1586465085.374,-89.844,67.871,-657.227,-49.316,0.000
1586465085.378,-45.410,59.082,-657.715,-21.484,0.000
1586465085.382,-64.453,52.734,-570.801,-69.824,0.000
1586465085.386,-121.582,41.504,-615.234,-112.793,0.000
1586465085.390,-117.676,43.945,-674.316,-98.145,0.000
1586465085.393,-85.449,46.387,-643.066,-32.715,0.000
1586465085.397,-98.145,35.645,-437.012,-27.344,0.000
1586465085.401,-131.836,27.832,-585.938,-110.840,0.000
1586465085.405,-117.188,37.109,-672.363,-125.000,0.000
1586465085.409,-83.008,43.457,-503.906,-61.035,0.000
1586465085.413,-73.242,40.039,-486.816,-25.391,0.000
1586465085.417,-85.938,40.039,-663.574,-85.938,0.000
1586465085.421,-103.027,37.598,-698.730,-99.609,0.000
1586465085.425,-52.734,35.645,-561.035,-37.109,0.000
1586465085.429,-8.789,36.133,-501.465,-9.277,0.000
1586465085.433,-52.246,36.621,-617.676,-21.973,0.000
1586465085.436,-79.590,34.180,-697.754,-60.547,0.000
1586465085.440,-43.457,41.016,-519.043,-41.992,0.000
1586465085.444,7.812,68.359,-365.234,36.621,0.000
1586465085.448,-3.906,68.359,-482.422,29.785,0.000
1586465085.452,-52.734,54.199,-639.648,-30.762,0.000
1586465085.456,-44.922,60.547,-490.234,-6.348,0.000
1586465085.460,32.227,71.777,-305.176,24.902,0.000
1586465085.464,8.301,61.035,-448.730,1.465,0.000
1586465085.468,-74.707,49.316,-626.953,-30.762,0.000
1586465085.472,-61.035,52.246,-464.355,-50.293,0.000
1586465085.475,-9.766,56.152,-353.027,-8.789,0.000
1586465085.479,5.371,55.664,-498.535,47.852,0.000
1586465085.483,-32.715,60.059,-646.484,-2.441,0.000
1586465085.487,-49.316,60.547,-477.051,-30.273,0.000
1586465085.491,-16.113,50.293,-443.848,13.184,0.000
1586465085.495,19.043,62.012,-442.383,31.250,0.000
1586465085.499,-2.441,68.359,-471.191,4.395,0.000
1586465085.503,-48.828,61.523,-571.289,-34.668,0.000
1586465085.507,-14.648,71.777,-620.117,-15.625,0.000
1586465085.511,49.805,82.520,-532.715,55.176,0.000
1586465085.515,25.391,84.961,-461.426,47.363,0.000
1586465085.518,-12.207,82.031,-576.172,-3.418,0.000
1586465085.522,1.465,83.984,-645.020,-1.465,0.000
1586465085.526,32.715,84.961,-490.723,28.320,0.000
1586465085.530,35.645,94.727,-424.316,66.895,0.000
1586465085.534,-12.695,116.211,-515.137,20.020,0.000
1586465085.538,-22.949,118.652,-584.961,-32.227,0.000
1586465085.542,31.738,124.023,-534.668,13.672,0.000
1586465085.546,56.152,135.742,-371.094,57.129,0.000
1586465085.550,26.855,132.812,-439.941,28.320,0.000
1586465085.554,6.348,131.836,-645.020,1.953,0.000
1586465085.558,36.133,149.414,-627.930,36.133,0.000
1586465085.561,69.824,158.203,-336.914,78.613,0.000
1586465085.565,26.855,152.832,-369.141,37.598,0.000
1586465085.569,-13.184,143.066,-671.387,21.973,0.000
1586465085.573,24.414,143.555,-614.746,53.223,0.000
1586465085.577,68.359,149.902,-239.258,56.641,0.000
1586465085.581,45.410,149.414,-280.762,40.039,0.000
1586465085.585,6.836,151.855,-512.695,8.301,0.000
1586465085.589,6.348,152.832,-494.629,35.156,0.000
1586465085.593,40.039,181.152,-312.988,81.055,0.000
1586465085.597,74.707,208.496,-305.176,85.938,0.000
1586465085.600,40.039,203.613,-514.160,55.176,0.000
1586465085.604,30.762,200.684,-514.648,47.852,0.000
1586465085.608,84.961,204.102,-314.941,100.098,0.000
1586465085.612,91.797,194.824,-297.852,134.277,0.000
1586465085.616,38.574,185.059,-459.961,95.703,0.000
1586465085.620,12.207,194.336,-466.309,57.617,0.000
1586465085.624,62.500,194.336,-299.805,72.754,0.000
1586465085.628,92.285,179.688,-225.586,82.031,0.000
1586465085.632,62.012,172.363,-416.016,65.430,0.000
1586465085.636,28.320,169.434,-476.074,32.715,0.000
1586465085.640,39.062,166.992,-326.172,55.664,0.000
1586465085.643,84.961,158.691,-294.434,93.262,0.000
1586465085.647,73.242,156.250,-342.285,61.523,0.000
1586465085.651,25.879,155.273,-375.977,15.625,0.000
1586465085.655,27.832,152.832,-355.957,14.648,0.000
1586465085.659,74.219,148.926,-335.938,46.387,0.000
1586465085.663,81.055,144.043,-415.039,71.289,0.000
1586465085.667,21.973,148.438,-465.332,17.578,0.000
1586465085.671,-10.254,146.484,-453.125,-5.859,0.000
1586465085.675,55.176,145.996,-490.234,36.621,0.000
1586465085.679,92.285,148.438,-431.152,45.410,0.000
1586465085.683,47.363,150.879,-281.738,13.672,0.000
1586465085.686,24.414,152.832,-397.949,-9.277,0.000
1586465085.690,48.828,148.926,-413.086,28.809,0.000
1586465085.694,58.105,148.438,-312.988,64.941,0.000
1586465085.698,33.203,154.785,-270.508,47.852,0.000
1586465085.702,2.930,159.180,-360.840,14.160,0.000
1586465085.706,30.273,158.203,-438.965,9.766,0.000
1586465085.710,79.102,162.109,-311.523,69.336,0.000
1586465085.714,58.105,160.156,-272.949,79.590,0.000
1586465085.718,4.883,145.508,-413.574,8.789,0.000
1586465085.722,7.812,149.414,-470.215,-3.906,0.000
1586465085.725,47.363,166.992,-341.309,41.016,0.000
1586465085.729,61.523,166.992,-327.637,76.172,0.000
1586465085.733,47.363,158.691,-535.156,34.668,0.000
1586465085.737,17.090,157.715,-673.340,44.922,0.000
1586465085.741,43.945,162.598,-462.891,74.219,0.000
1586465085.745,67.383,162.598,-323.730,55.664,0.000
1586465085.749,24.414,165.527,-578.613,23.438,0.000
1586465085.753,-4.395,167.480,-751.465,-2.441,0.000
1586465085.757,17.578,165.527,-609.375,18.066,0.000
1586465085.761,68.359,165.527,-415.039,63.965,0.000
1586465085.765,67.383,160.156,-542.480,67.383,0.000
1586465085.768,21.973,159.180,-723.145,4.395,0.000
1586465085.772,41.992,164.551,-458.496,12.207,0.000
1586465085.776,76.172,163.574,-353.516,71.777,0.000
1586465085.780,52.734,159.180,-372.070,54.199,0.000
1586465085.784,7.324,156.738,-457.520,-20.996,0.000
1586465085.788,10.254,166.992,-523.926,-3.906,0.000
1586465085.792,66.406,177.734,-451.172,57.129,0.000
1586465085.796,80.566,169.434,-332.520,52.246,0.000
1586465085.800,41.992,149.902,-395.996,-1.953,0.000
1586465085.804,10.254,160.156,-564.453,-19.531,0.000
1586465085.808,41.504,169.922,-490.723,19.531,0.000
1586465085.811,89.844,156.738,-356.934,48.340,0.000
1586465085.815,55.176,156.250,-323.242,29.785,0.000
1586465085.819,10.254,159.668,-355.957,-10.742,0.000
1586465085.823,31.738,154.785,-406.738,31.738,0.000
1586465085.827,62.500,155.762,-198.242,105.469,0.000
1586465085.831,56.641,156.738,44.434,70.801,0.000
1586465085.835,16.602,157.715,-167.969,5.371,0.000
1586465085.839,41.016,166.016,-410.156,17.578,0.000
1586465085.843,90.820,169.922,-291.992,82.031,0.000
1586465085.847,88.867,169.434,87.402,94.238,0.000
1586465085.850,60.059,169.922,-101.074,41.016,0.000
1586465085.854,40.039,161.621,-474.121,28.320,0.000
1586465085.858,53.711,154.785,-298.340,75.684,0.000
1586465085.862,84.473,156.250,205.566,81.543,0.000
1586465085.866,60.059,155.273,226.562,41.016,0.000
1586465085.870,20.996,153.320,-33.691,1.465,0.000
1586465085.874,52.246,150.391,94.238,9.766,0.000
1586465085.878,66.406,145.996,379.883,47.852,0.000
1586465085.882,20.020,133.789,237.305,32.227,0.000
1586465085.886,-14.648,124.512,146.973,-20.996,0.000
1586465085.890,13.184,132.324,277.344,-38.574,0.000
1586465085.893,47.363,136.230,360.352,-7.324,0.000
1586465085.897,36.621,130.371,326.660,-17.090,0.000
1586465085.901,-9.766,127.930,-34.668,-76.660,0.000
1586465085.905,-27.344,116.699,2.930,-95.215,0.000
1586465085.909,12.207,117.676,412.109,-27.832,0.000
1586465085.913,4.395,115.723,383.789,-20.996,0.000
1586465085.917,-41.016,98.633,75.684,-104.492,0.000
1586465085.921,-54.688,85.938,129.395,-130.371,0.000
1586465085.925,-27.344,83.008,381.348,-70.312,0.000
1586465085.929,-16.602,77.637,333.496,-17.578,0.000
1586465085.933,-55.664,70.801,214.355,-64.453,0.000
1586465085.936,-75.684,68.359,178.223,-109.863,0.000
1586465085.940,-33.203,62.012,243.652,-64.941,0.000
1586465085.944,8.301,59.082,113.770,-11.230,0.000
1586465085.948,-34.180,48.340,-115.234,-46.875,0.000
1586465085.952,-90.332,43.945,-82.520,-99.121,0.000
1586465085.956,-76.172,35.645,-53.223,-63.477,0.000
1586465085.960,-28.809,28.809,-6.348,-28.809,0.000
1586465085.964,-22.949,37.598,-156.738,-30.762,0.000
1586465085.968,-83.008,37.598,-360.352,-80.078,0.000
1586465085.972,-83.008,37.109,-389.160,-96.680,0.000
1586465085.975,-35.156,32.227,-379.883,-50.293,0.000
1586465085.979,-36.621,29.785,-292.969,-18.066,0.000
1586465085.983,-72.266,20.996,-353.516,-60.059,0.000
1586465085.987,-80.078,2.930,-497.559,-82.520,0.000
1586465085.991,-49.316,4.395,-488.770,-31.738,0.000
1586465085.995,-37.109,2.930,-350.098,-50.781,0.000
1586465085.999,-78.125,-0.977,-406.738,-84.961,0.000
1586465086.003,-104.980,-5.371,-598.633,-101.562,0.000
1586465086.007,-78.613,-12.695,-625.977,-65.918,0.000
1586465086.011,-45.410,-22.949,-458.008,-18.066,0.000
1586465086.015,-57.129,-27.344,-445.312,-41.016,0.000
1586465086.018,-85.449,-15.137,-673.340,-75.684,0.000
1586465086.022,-71.289,-8.789,-749.023,-71.777,0.000
1586465086.026,-20.996,-4.883,-550.293,-23.438,0.000
1586465086.030,-18.066,0.977,-468.262,2.930,0.000
1586465086.034,-53.711,4.395,-662.109,-34.668,0.000
1586465086.038,-50.781,5.371,-779.785,-62.988,0.000
1586465086.042,-20.996,6.348,-566.406,-36.621,0.000
1586465086.046,-19.531,2.441,-379.883,-1.465,0.000
1586465086.050,-54.199,0.977,-669.922,-30.762,0.000
1586465086.054,-62.012,12.207,-812.988,-58.105,0.000
1586465086.058,-18.066,13.672,-485.352,-36.621,0.000
1586465086.061,13.184,8.301,-396.973,3.906,0.000
1586465086.065,-21.973,9.277,-508.301,-9.277,0.000
1586465086.069,-63.477,10.742,-623.535,-62.012,0.000
1586465086.073,-14.648,15.137,-531.738,-10.742,0.000
1586465086.077,45.898,19.043,-366.699,55.176,0.000
1586465086.081,8.301,19.531,-472.168,29.785,0.000
1586465086.085,-42.480,21.973,-583.984,-8.301,0.000
1586465086.089,-13.672,24.414,-539.062,-5.371,0.000
1586465086.093,18.555,17.578,-372.070,36.621,0.000
1586465086.097,0.977,8.301,-443.359,38.086,0.000
1586465086.100,-34.180,12.695,-479.492,-5.371,0.000
1586465086.104,-36.621,20.020,-318.848,-19.531,0.000
1586465086.108,9.766,29.785,-256.348,13.184,0.000
1586465086.112,28.809,40.039,-83.008,37.109,0.000
1586465086.116,-0.977,43.457,73.730,18.066,0.000
1586465086.120,-20.508,40.039,-126.953,-14.648,0.000
1586465086.124,5.859,41.992,-180.664,-0.488,0.000
1586465086.128,18.066,34.180,57.129,38.086,0.000
1586465086.132,-23.438,18.066,-49.316,-12.207,0.000
1586465086.136,-50.293,12.207,-267.578,-41.992,0.000
1586465086.140,-33.691,9.766,-363.281,-12.207,0.000
1586465086.143,19.531,17.578,-356.445,18.066,0.000
1586465086.147,8.789,26.855,121.582,17.090,0.000
1586465086.151,-49.316,25.391,188.477,-30.273,0.000
1586465086.155,-41.016,25.391,18.066,-58.105,0.000
1586465086.159,0.000,21.973,224.609,4.883,0.000
1586465086.163,-1.953,23.926,348.633,33.691,0.000
1586465086.167,-35.645,22.949,195.801,-54.199,0.000
1586465086.171,-58.594,20.020,250.488,-90.820,0.000
1586465086.175,-50.293,22.949,394.531,-47.852,0.000
1586465086.179,-26.367,20.020,413.574,-39.551,0.000
1586465086.183,-48.828,20.996,366.699,-64.453,0.000
1586465086.186,-70.801,21.484,122.559,-83.984,0.000
1586465086.190,-59.082,16.602,234.375,-50.293,0.000
1586465086.194,-31.738,13.672,515.137,-23.926,0.000
1586465086.198,-47.363,19.531,343.750,-68.359,0.000
1586465086.202,-94.727,21.973,201.660,-112.305,0.000
1586465086.206,-68.848,26.855,250.977,-85.938,0.000
1586465086.210,-27.344,35.645,346.680,-38.086,0.000
1586465086.214,-41.504,31.738,193.848,-63.477,0.000
1586465086.218,-95.703,19.043,-206.055,-104.492,0.000
1586465086.222,-117.188,8.301,-348.145,-108.398,0.000
1586465086.225,-71.289,11.230,-299.805,-52.246,0.000
1586465086.229,-49.316,16.602,-444.336,-34.668,0.000
1586465086.233,-101.074,13.184,-676.758,-66.406,0.000
1586465086.237,-118.164,9.277,-581.055,-82.520,0.000
1586465086.241,-67.871,5.371,-507.812,-55.664,0.000
1586465086.245,-51.270,5.859,-523.438,-4.883,0.000
1586465086.249,-84.473,6.348,-622.070,-37.109,0.000
1586465086.253,-147.461,-5.371,-732.910,-70.801,0.000
1586465086.257,-120.117,-1.953,-784.180,-50.781,0.000
1586465086.261,-58.105,19.531,-738.281,-18.066,0.000
1586465086.265,-65.430,23.438,-720.703,-17.578,0.000
1586465086.268,-81.543,21.484,-839.844,-65.430,0.000
1586465086.272,-59.570,17.090,-890.625,-41.992,0.000
1586465086.276,-21.484,17.578,-789.062,15.625,0.000
1586465086.280,-18.066,32.227,-762.207,10.254,0.000
1586465086.284,-58.594,32.227,-847.656,-41.016,0.000
1586465086.288,-66.895,25.879,-896.484,-61.035,0.000
1586465086.292,-17.090,38.574,-869.141,3.906,0.000
1586465086.296,1.953,50.781,-802.734,28.320,0.000
1586465086.300,-28.809,48.828,-825.684,-5.859,0.000
1586465086.304,-37.598,60.059,-937.012,9.277,0.000
1586465086.308,-1.465,60.059,-911.133,24.902,0.000
1586465086.311,38.086,56.152,-736.328,27.344,0.000
1586465086.315,28.809,68.359,-796.875,19.531,0.000
1586465086.319,-8.789,61.523,-945.312,-7.324,0.000
1586465086.323,-3.906,58.105,-918.457,41.504,0.000
1586465086.327,41.992,60.547,-720.703,72.266,0.000
1586465086.331,50.293,63.965,-697.266,42.480,0.000
1586465086.335,-10.254,64.941,-813.477,8.301,0.000
1586465086.339,-4.395,59.570,-789.551,17.090,0.000
1586465086.343,36.621,54.688,-615.234,72.266,0.000
1586465086.347,24.902,49.316,-563.965,64.453,0.000
1586465086.350,-10.254,42.480,-752.441,4.395,0.000
1586465086.354,-19.043,42.969,-750.000,-8.789,0.000
1586465086.358,24.902,57.129,-508.301,34.668,0.000
1586465086.362,48.828,56.641,-412.109,54.199,0.000
1586465086.366,10.254,45.898,-576.172,-3.418,0.000
1586465086.370,1.953,44.922,-557.129,-26.367,0.000
1586465086.374,22.949,43.457,-357.422,34.180,0.000
1586465086.378,44.434,42.969,-229.980,61.035,0.000
1586465086.382,25.391,51.758,-434.082,27.832,0.000
1586465086.386,-32.715,64.941,-512.207,8.301,0.000
1586465086.390,2.930,68.359,-108.887,32.715,0.000
1586465086.393,54.688,64.941,206.055,60.547,0.000
1586465086.397,25.391,55.176,269.531,40.527,0.000
1586465086.401,-14.648,55.176,246.094,6.348,0.000
1586465086.405,15.137,58.105,315.430,17.090,0.000
1586465086.409,75.684,54.199,378.906,56.641,0.000
1586465086.413,51.270,60.547,374.023,51.270,0.000
1586465086.417,-29.297,69.336,414.062,-5.859,0.000
1586465086.421,-38.574,72.754,453.125,-6.836,0.000
1586465086.425,15.137,71.777,400.391,34.668,0.000
1586465086.429,29.297,71.777,497.070,63.965,0.000
1586465086.433,-3.906,77.148,579.102,33.691,0.000
1586465086.436,-55.176,66.895,504.395,2.441,0.000
1586465086.440,-56.152,52.246,475.098,10.254,0.000
1586465086.444,-30.273,57.617,553.711,19.043,0.000
1586465086.448,-70.801,57.617,663.086,-16.602,0.000
1586465086.452,-121.094,49.316,623.535,-69.824,0.000
1586465086.456,-125.488,46.387,641.602,-95.703,0.000
1586465086.460,-100.586,34.668,697.754,-71.289,0.000
1586465086.464,-123.535,24.902,717.285,-77.637,0.000
1586465086.468,-194.336,21.484,666.016,-141.602,0.000
1586465086.472,-201.660,23.926,607.422,-169.434,0.000
1586465086.475,-154.785,28.809,696.777,-126.953,0.000
1586465086.479,-168.457,20.996,729.492,-137.207,0.000
1586465086.483,-230.469,9.766,616.211,-187.500,0.000
1586465086.487,-242.188,17.578,559.082,-208.984,0.000
1586465086.491,-194.824,20.996,653.320,-203.613,0.000
1586465086.495,-202.148,17.578,660.156,-188.477,0.000
1586465086.499,-251.953,11.230,546.387,-198.242,0.000
1586465086.503,-270.508,18.066,484.375,-207.031,0.000
1586465086.507,-250.977,43.457,523.926,-232.422,0.000
1586465086.511,-191.406,54.199,606.934,-227.051,0.000
1586465086.515,-234.375,41.992,392.578,-241.211,0.000
1586465086.518,-323.730,34.180,241.699,-284.668,0.000
1586465086.522,-294.922,50.781,453.613,-251.465,0.000
1586465086.526,-235.352,50.293,510.742,-233.887,0.000
1586465086.530,-241.699,41.992,443.359,-224.121,0.000
1586465086.534,-281.738,47.852,357.422,-245.605,0.000
1586465086.538,-279.785,52.246,342.285,-284.668,0.000
1586465086.542,-239.746,53.711,395.020,-237.305,0.000
1586465086.546,-248.535,50.781,464.355,-211.914,0.000
1586465086.550,-293.945,40.039,353.027,-289.062,0.000
1586465086.554,-312.500,26.367,203.125,-321.777,0.000
1586465086.558,-294.434,31.250,208.008,-246.582,0.000
1586465086.561,-281.250,35.645,234.863,-244.629,0.000
1586465086.565,-294.434,31.738,165.039,-281.250,0.000
1586465086.569,-312.988,41.016,-163.574,-265.625,0.000
1586465086.573,-294.922,54.199,-355.957,-278.320,0.000
1586465086.577,-262.207,58.105,-312.988,-266.113,0.000
1586465086.581,-272.949,77.637,-248.535,-258.301,0.000
1586465086.585,-287.109,101.074,-269.043,-287.598,0.000
1586465086.589,-291.992,103.027,-425.781,-262.207,0.000
1586465086.593,-272.461,102.051,-257.324,-199.219,0.000
1586465086.597,-256.836,108.398,32.715,-231.445,0.000
1586465086.600,-315.430,118.164,-318.359,-279.297,0.000
1586465086.604,-323.730,122.559,-511.230,-292.480,0.000
1586465086.608,-263.672,127.441,-331.055,-284.180,0.000
1586465086.612,-266.113,135.254,-297.852,-237.305,0.000
1586465086.616,-308.105,137.207,-351.074,-282.227,0.000
1586465086.620,-312.012,138.184,-579.102,-321.777,0.000
1586465086.624,-266.113,142.090,-581.543,-263.184,0.000
1586465086.628,-243.652,154.297,-257.812,-227.051,0.000
1586465086.632,-290.039,148.926,-455.078,-237.793,0.000
1586465086.636,-314.941,139.648,-631.836,-275.391,0.000
1586465086.640,-291.504,148.926,-526.367,-278.809,0.000
1586465086.643,-256.836,155.762,-408.203,-226.074,0.000
1586465086.647,-268.066,158.691,-560.547,-237.793,0.000
1586465086.651,-307.129,162.109,-723.145,-290.039,0.000
1586465086.655,-285.156,165.039,-625.000,-264.160,0.000
1586465086.659,-217.773,172.363,-500.488,-200.195,0.000
1586465086.663,-209.473,181.152,-512.207,-211.914,0.000
1586465086.667,-273.926,187.012,-771.973,-265.625,0.000
1586465086.671,-291.016,198.242,-848.633,-265.625,0.000
1586465086.675,-243.164,205.566,-602.051,-218.262,0.000
1586465086.679,-213.867,212.402,-601.562,-177.246,0.000
1586465086.683,-226.562,226.074,-775.879,-182.129,0.000
1586465086.686,-229.492,239.258,-749.023,-173.340,0.000
1586465086.690,-194.336,245.605,-682.617,-162.598,0.000
1586465086.694,-152.832,241.211,-725.586,-157.227,0.000
1586465086.698,-175.781,237.305,-802.734,-169.434,0.000
1586465086.702,-196.777,245.605,-770.996,-195.312,0.000
1586465086.706,-168.457,251.953,-713.867,-174.316,0.000
1586465086.710,-143.066,248.535,-759.766,-128.906,0.000
1586465086.714,-132.812,246.582,-826.172,-113.770,0.000
1586465086.718,-163.574,248.535,-710.449,-148.926,0.000
1586465086.722,-149.414,250.000,-735.840,-143.555,0.000
1586465086.725,-104.980,252.930,-738.281,-76.172,0.000
1586465086.729,-104.980,254.395,-723.145,-57.129,0.000
1586465086.733,-116.211,251.953,-735.352,-104.980,0.000
1586465086.737,-100.098,243.652,-750.977,-122.070,0.000
1586465086.741,-64.941,247.559,-732.910,-82.520,0.000
1586465086.745,-45.898,258.789,-607.422,-59.570,0.000
1586465086.749,-69.824,258.789,-605.469,-71.777,0.000
1586465086.753,-90.332,252.930,-710.938,-83.496,0.000
1586465086.757,-56.641,250.977,-753.418,-74.219,0.000
1586465086.761,-31.250,251.465,-584.473,-47.363,0.000
1586465086.765,-43.945,240.234,-563.965,-62.012,0.000
1586465086.768,-69.336,242.676,-780.762,-90.332,0.000
1586465086.772,-53.711,254.395,-761.230,-54.199,0.000
1586465086.776,8.789,252.930,-589.844,-0.488,0.000
1586465086.780,26.367,245.117,-592.285,-3.906,0.000
1586465086.784,-28.320,227.539,-759.766,-51.270,0.000
1586465086.788,-35.156,224.121,-827.637,-58.594,0.000
1586465086.792,13.184,227.539,-727.051,2.930,0.000
1586465086.796,51.758,223.145,-616.211,30.762,0.000
1586465086.800,29.297,215.332,-750.977,-24.414,0.000
1586465086.804,-11.719,220.703,-896.484,-44.922,0.000
1586465086.808,24.902,222.656,-644.531,-10.742,0.000
1586465086.811,57.617,210.938,-544.922,35.645,0.000
1586465086.815,21.973,208.008,-680.176,20.020,0.000
1586465086.819,5.859,207.520,-750.000,-11.230,0.000
1586465086.823,45.898,203.125,-666.016,24.414,0.000
1586465086.827,74.219,194.336,-565.918,68.848,0.000
1586465086.831,57.129,188.477,-657.715,43.457,0.000
1586465086.835,29.297,186.035,-770.996,-9.766,0.000
1586465086.839,45.898,185.547,-646.484,0.977,0.000
1586465086.843,66.895,178.711,-478.516,65.918,0.000
1586465086.847,53.711,172.363,-534.668,85.938,0.000
1586465086.850,25.879,162.598,-550.293,38.086,0.000
1586465086.854,23.438,151.855,-449.707,34.668,0.000
1586465086.858,60.547,161.621,-399.414,85.938,0.000
1586465086.862,86.426,166.504,-378.418,93.750,0.000
1586465086.866,28.320,151.855,-396.484,34.668,0.000
1586465086.870,3.418,149.414,-423.828,20.508,0.000
1586465086.874,65.430,162.109,-435.547,69.336,0.000
1586465086.878,79.102,157.227,-477.051,88.867,0.000
1586465086.882,53.711,153.809,-464.844,54.688,0.000
1586465086.886,43.945,155.762,-420.898,26.855,0.000
1586465086.890,57.129,146.484,-458.984,53.711,0.000
1586465086.893,61.035,145.020,-477.051,93.750,0.000
1586465086.897,56.152,162.598,-247.559,76.660,0.000
1586465086.901,25.879,165.039,-354.980,31.250,0.000
1586465086.905,27.832,161.133,-492.676,34.180,0.000
1586465086.909,75.684,158.691,-317.383,83.984,0.000
1586465086.913,77.637,155.273,-271.484,70.801,0.000
1586465086.917,24.902,153.320,-474.609,36.133,0.000
1586465086.921,15.625,148.438,-471.680,45.410,0.000
1586465086.925,77.148,150.879,-353.027,76.660,0.000
1586465086.929,103.516,160.645,-395.020,95.703,0.000
1586465086.933,42.969,153.809,-549.316,64.453,0.000
1586465086.936,5.859,156.250,-647.461,36.133,0.000
1586465086.940,34.668,163.086,-553.711,34.668,0.000
1586465086.944,67.871,157.715,-455.566,79.590,0.000
1586465086.948,61.035,153.809,-634.766,73.730,0.000
1586465086.952,34.180,166.504,-805.176,43.457,0.000
1586465086.956,56.641,180.176,-740.723,94.238,0.000
1586465086.960,106.934,176.758,-620.605,151.367,0.000
1586465086.964,94.727,161.133,-766.113,120.605,0.000
1586465086.968,25.879,148.926,-958.496,40.527,0.000
1586465086.972,42.480,148.926,-879.883,35.156,0.000
1586465086.975,88.379,138.672,-838.379,95.215,0.000
1586465086.979,63.965,127.441,-890.137,106.445,0.000
1586465086.983,41.992,129.395,-957.031,52.734,0.000
1586465086.987,35.156,139.160,-876.465,23.926,0.000
1586465086.991,78.125,127.441,-829.102,60.059,0.000
1586465086.995,98.145,126.465,-810.059,82.520,0.000
1586465086.999,44.922,126.953,-839.844,46.387,0.000
1586465087.003,30.273,113.770,-906.250,30.273,0.000
1586465087.007,66.406,112.305,-913.086,61.523,0.000
1586465087.011,106.445,110.352,-879.883,102.539,0.000
1586465087.015,86.426,104.492,-878.906,91.309,0.000
1586465087.018,39.551,101.074,-929.199,53.223,0.000
1586465087.022,48.340,100.098,-962.402,76.172,0.000
1586465087.026,92.285,97.656,-917.969,105.957,0.000
1586465087.030,104.980,98.633,-882.324,78.125,0.000
1586465087.034,44.922,92.285,-914.551,41.016,0.000
1586465087.038,42.480,87.402,-940.430,56.152,0.000
1586465087.042,87.402,81.055,-879.883,86.914,0.000
1586465087.046,103.516,75.684,-825.195,83.984,0.000
1586465087.050,68.848,82.031,-867.188,50.293,0.000
1586465087.054,46.875,79.590,-949.219,14.160,0.000
1586465087.058,92.773,70.801,-913.574,63.477,0.000
1586465087.061,113.770,75.684,-720.703,109.375,0.000
1586465087.065,74.219,72.754,-723.145,56.641,0.000
1586465087.069,57.617,64.941,-901.367,29.297,0.000
1586465087.073,105.957,74.707,-838.867,68.359,0.000
1586465087.077,131.348,73.730,-465.820,120.117,0.000
1586465087.081,89.355,70.312,-412.109,125.488,0.000
1586465087.085,44.922,58.105,-660.156,46.387,0.000
1586465087.089,69.824,50.781,-616.211,51.270,0.000
1586465087.093,122.559,68.848,-238.770,123.047,0.000
1586465087.097,107.422,68.848,-162.109,118.652,0.000
1586465087.100,69.824,51.758,-367.188,91.797,0.000
1586465087.104,64.941,48.340,-413.574,81.543,0.000
1586465087.108,92.773,55.176,-166.504,91.309,0.000
1586465087.112,104.492,57.129,56.152,110.352,0.000
1586465087.116,63.965,51.270,-233.887,66.406,0.000
1586465087.120,35.156,46.387,-435.547,25.879,0.000
1586465087.124,65.918,41.992,-145.020,74.219,0.000
1586465087.128,82.031,39.551,124.023,91.309,0.000
1586465087.132,45.410,41.016,-26.367,20.020,0.000
1586465087.136,13.672,37.109,-147.461,-22.949,0.000
1586465087.140,19.531,34.668,143.066,12.695,0.000
1586465087.143,59.082,40.039,322.266,75.195,0.000
1586465087.147,65.430,44.434,110.352,72.754,0.000
1586465087.151,22.461,41.016,105.957,14.160,0.000
1586465087.155,33.203,38.086,326.172,17.090,0.000
1586465087.159,82.031,41.016,328.125,63.477,0.000
1586465087.163,68.359,38.574,301.758,62.012,0.000
1586465087.167,23.926,40.527,258.789,33.691,0.000
1586465087.171,18.066,41.992,315.918,18.066,0.000
1586465087.175,72.266,41.504,212.891,19.531,0.000
1586465087.179,87.891,44.434,185.547,39.551,0.000
1586465087.183,44.434,45.410,343.750,9.277,0.000
1586465087.186,30.762,43.457,269.531,-9.277,0.000
1586465087.190,61.523,43.457,313.965,50.293,0.000
1586465087.194,82.520,47.852,369.629,73.730,0.000
1586465087.198,55.176,52.734,324.707,36.621,0.000
1586465087.202,16.113,49.805,234.375,1.465,0.000
1586465087.206,57.617,56.641,292.969,22.949,0.000
1586465087.210,93.750,62.012,403.809,73.242,0.000
1586465087.214,54.199,62.500,399.902,67.383,0.000
1586465087.218,29.785,71.777,327.148,32.715,0.000
1586465087.222,32.227,65.430,18.555,14.160,0.000
1586465087.225,66.406,67.383,194.336,50.293,0.000
1586465087.229,65.430,83.496,460.449,42.969,0.000
1586465087.233,23.926,83.984,178.711,-2.930,0.000
1586465087.237,20.996,86.914,58.594,-21.484,0.000
1586465087.241,62.500,96.680,257.324,11.719,0.000
1586465087.245,73.242,96.191,354.004,59.570,0.000
1586465087.249,34.668,88.867,91.309,20.020,0.000
1586465087.253,3.906,87.891,-285.645,-25.391,0.000
1586465087.257,30.762,94.727,-335.449,9.277,0.000
1586465087.261,48.828,90.332,-106.445,58.105,0.000
1586465087.265,32.227,86.426,-294.434,30.762,0.000
1586465087.268,10.742,90.332,-592.285,-15.137,0.000
1586465087.272,13.672,89.844,-327.637,-4.395,0.000
1586465087.276,53.711,97.656,-178.711,35.645,0.000
1586465087.280,43.945,109.863,-280.273,29.785,0.000
1586465087.284,14.160,118.164,-429.688,-24.414,0.000
1586465087.288,10.742,121.094,-484.375,-24.414,0.000
1586465087.292,31.738,120.117,-401.855,38.086,0.000
1586465087.296,30.273,116.211,-339.355,38.574,0.000
1586465087.300,7.324,109.375,-484.375,-3.906,0.000
1586465087.304,8.301,109.375,-581.055,13.672,0.000
1586465087.308,44.922,127.930,-430.176,57.617,0.000
1586465087.311,55.664,135.742,-465.820,78.125,0.000
1586465087.315,28.320,137.207,-579.590,31.738,0.000
1586465087.319,24.414,153.809,-574.707,-0.977,0.000
1586465087.323,41.992,163.086,-579.102,36.133,0.000
1586465087.327,78.125,164.551,-441.406,92.285,0.000
1586465087.331,81.543,160.645,-470.703,78.613,0.000
1586465087.335,53.711,145.996,-643.555,32.715,0.000
1586465087.339,70.312,145.508,-726.074,35.645,0.000
1586465087.343,88.379,156.250,-582.031,106.445,0.000
1586465087.347,91.309,149.902,-543.945,86.914,0.000
1586465087.350,78.613,149.902,-746.094,6.348,0.000
1586465087.354,78.125,143.555,-838.379,24.902,0.000
1586465087.358,94.238,129.395,-752.441,86.914,0.000
1586465087.362,71.289,128.418,-495.117,89.355,0.000
1586465087.366,35.645,117.188,-577.148,40.527,0.000
1586465087.370,25.391,108.887,-678.223,45.898,0.000
1586465087.374,57.129,115.234,-529.785,63.477,0.000
1586465087.378,77.637,112.305,-450.195,97.168,0.000
1586465087.382,49.805,106.934,-609.375,67.871,0.000
1586465087.386,28.320,85.938,-699.707,21.484,0.000
1586465087.390,39.551,65.918,-529.297,39.062,0.000
1586465087.393,73.242,72.266,-437.500,56.641,0.000
1586465087.397,69.336,66.406,-565.430,45.410,0.000
1586465087.401,20.996,54.688,-670.410,17.578,0.000
1586465087.405,2.930,57.129,-606.445,12.695,0.000
1586465087.409,58.594,64.941,-436.035,38.574,0.000
1586465087.413,66.895,62.988,-496.582,46.387,0.000
1586465087.417,7.812,41.992,-758.301,24.902,0.000
1586465087.421,10.254,33.691,-728.516,9.277,0.000
1586465087.425,58.105,40.039,-559.570,20.020,0.000
1586465087.429,63.965,37.598,-600.098,54.688,0.000
1586465087.433,22.461,23.438,-773.438,4.395,0.000
1586465087.436,6.348,11.230,-799.316,-36.621,0.000
1586465087.440,31.738,13.672,-678.711,8.789,0.000
1586465087.444,48.828,11.719,-700.684,66.406,0.000
1586465087.448,32.227,3.418,-796.875,47.363,0.000
1586465087.452,18.066,0.977,-716.309,-4.395,0.000
1586465087.456,26.855,-0.977,-652.832,-1.953,0.000
1586465087.460,46.387,-6.836,-541.016,50.781,0.000
1586465087.464,36.133,-10.742,-520.020,48.340,0.000
1586465087.468,6.348,-10.254,-565.430,-24.902,0.000
1586465087.472,23.926,-12.207,-595.215,-10.254,0.000
1586465087.475,43.457,-17.578,-529.785,42.969,0.000
1586465087.479,29.785,-17.578,-431.152,35.645,0.000
1586465087.483,5.859,-15.137,-490.234,-8.301,0.000
1586465087.487,-7.812,-21.973,-580.566,-26.855,0.000
1586465087.491,23.438,-27.344,-518.555,27.832,0.000
1586465087.495,36.621,-26.367,-408.203,50.781,0.000
1586465087.499,9.766,-37.109,-409.668,-12.695,0.000
1586465087.503,5.371,-40.527,-452.637,-26.367,0.000
1586465087.507,19.043,-35.645,-417.969,20.996,0.000
1586465087.511,32.715,-35.645,-64.453,48.340,0.000
1586465087.515,26.855,-35.645,-2.930,14.648,0.000
1586465087.518,0.488,-43.945,-358.398,-41.016,0.000
1586465087.522,-0.977,-43.945,-438.965,-15.137,0.000
1586465087.526,21.484,-40.527,-2.441,34.180,0.000
1586465087.530,27.344,-36.621,187.012,6.348,0.000
1586465087.534,-6.348,-39.551,-278.320,-30.762,0.000
1586465087.538,-15.625,-43.945,-454.102,-14.648,0.000
1586465087.542,29.297,-37.598,-5.371,48.828,0.000
1586465087.546,31.738,-45.410,340.332,62.988,0.000
1586465087.550,-6.348,-56.152,-105.469,-11.230,0.000
1586465087.554,-19.043,-55.664,-504.395,-27.832,0.000
1586465087.558,13.184,-54.199,20.508,17.578,0.000
1586465087.561,19.043,-61.035,369.141,48.828,0.000
1586465087.565,-24.902,-68.848,121.582,-15.137,0.000
1586465087.569,-29.297,-73.242,-97.168,-55.176,0.000
1586465087.573,-0.977,-70.312,173.828,-9.277,0.000
1586465087.577,15.137,-62.988,424.316,40.527,0.000
1586465087.581,-6.836,-60.547,349.121,4.395,0.000
1586465087.585,-38.574,-63.965,253.418,-55.176,0.000
1586465087.589,-24.902,-66.895,333.984,-39.062,0.000
1586465087.593,13.672,-63.477,477.539,15.137,0.000
1586465087.597,2.441,-69.336,460.449,-1.465,0.000
1586465087.600,-50.293,-66.895,412.109,-62.988,0.000
1586465087.604,-59.082,-58.105,415.039,-71.777,0.000
1586465087.608,-21.484,-70.801,472.656,-43.945,0.000
1586465087.612,-27.832,-75.684,309.082,-37.109,0.000
1586465087.616,-70.312,-60.059,234.863,-77.637,0.000
1586465087.620,-66.895,-54.199,325.684,-76.660,0.000
1586465087.624,-28.320,-65.918,240.723,-38.086,0.000
1586465087.628,-23.926,-67.383,144.531,-32.227,0.000
1586465087.632,-53.223,-62.012,-124.512,-62.012,0.000
1586465087.636,-74.707,-58.105,-395.996,-73.242,0.000
1586465087.640,-63.477,-58.105,-562.500,-55.176,0.000
1586465087.643,-32.715,-70.801,-662.109,-1.953,0.000
1586465087.647,-51.270,-67.383,-542.969,-8.301,0.000
1586465087.651,-92.285,-57.617,-712.891,-79.590,0.000
1586465087.655,-65.918,-59.082,-785.156,-58.594,0.000
1586465087.659,-19.531,-56.152,-708.496,0.488,0.000
1586465087.663,-34.668,-48.340,-782.715,-6.348,0.000
1586465087.667,-54.199,-46.875,-905.273,-20.996,0.000
1586465087.671,-57.617,-55.664,-932.617,-40.527,0.000
1586465087.675,-37.598,-74.707,-898.438,-27.344,0.000
1586465087.679,-9.277,-73.242,-874.023,-15.137,0.000
1586465087.683,-37.598,-59.570,-917.480,-73.242,0.000
1586465087.686,-83.496,-62.500,-963.867,-85.449,0.000
1586465087.690,-47.363,-62.988,-896.973,-34.668,0.000
1586465087.694,-16.113,-57.129,-794.922,-6.348,0.000
1586465087.698,-44.434,-60.547,-866.699,-32.715,0.000
1586465087.702,-74.219,-60.547,-925.781,-64.453,0.000
1586465087.706,-41.016,-53.223,-869.141,-33.691,0.000
1586465087.710,8.301,-50.781,-770.996,16.113,0.000
1586465087.714,-2.441,-52.734,-858.398,5.859,0.000
1586465087.718,-43.945,-54.199,-958.008,-25.391,0.000
1586465087.722,-35.156,-47.363,-882.812,-9.277,0.000
1586465087.725,12.207,-38.086,-845.215,36.621,0.000
1586465087.729,27.344,-45.898,-891.602,21.973,0.000
1586465087.733,-10.742,-45.410,-964.355,-34.180,0.000
1586465087.737,-24.414,-34.668,-886.230,-37.598,0.000
1586465087.741,20.508,-29.297,-796.875,6.348,0.000
1586465087.745,16.113,-29.785,-746.094,27.344,0.000
1586465087.749,-28.809,-30.762,-809.570,-0.488,0.000
1586465087.753,-27.344,-26.367,-853.027,-20.508,0.000
1586465087.757,17.578,-30.273,-820.801,9.277,0.000
1586465087.761,40.039,-34.668,-741.699,89.355,0.000
1586465087.765,28.809,-29.785,-678.223,57.129,0.000
1586465087.768,-2.930,-20.996,-724.121,-44.922,0.000
1586465087.772,8.789,-27.344,-696.777,-26.855,0.000
1586465087.776,42.480,-33.691,-669.434,47.363,0.000
1586465087.780,37.109,-21.484,-645.996,52.734,0.000
1586465087.784,10.742,-22.461,-566.406,-5.371,0.000
1586465087.788,6.348,-34.668,-528.320,13.672,0.000
1586465087.792,37.109,-40.039,-390.137,79.102,0.000
1586465087.796,52.246,-29.297,-288.086,78.613,0.000
1586465087.800,15.625,-21.973,-367.676,25.391,0.000
1586465087.804,-2.930,-23.926,-440.430,-8.789,0.000
1586465087.808,31.738,-18.555,-396.484,48.828,0.000
1586465087.811,73.730,-12.207,-38.086,103.027,0.000
1586465087.815,41.504,-17.090,16.602,44.434,0.000
1586465087.819,2.441,-23.926,-459.961,6.836,0.000
1586465087.823,22.461,-20.020,-395.020,32.715,0.000
1586465087.827,58.105,-13.184,125.977,66.895,0.000
1586465087.831,54.688,-4.883,236.328,55.664,0.000
1586465087.835,17.578,3.906,-206.055,32.715,0.000
1586465087.839,43.945,5.371,-357.910,42.480,0.000
1586465087.843,99.121,7.324,224.121,59.082,0.000
1586465087.847,72.266,13.184,330.078,67.871,0.000
1586465087.850,41.504,23.926,17.578,46.387,0.000
1586465087.854,36.133,41.016,-103.027,26.855,0.000
1586465087.858,40.039,39.062,252.441,61.523,0.000
1586465087.862,54.688,30.762,412.598,92.285,0.000
1586465087.866,40.039,40.039,171.875,65.430,0.000
1586465087.870,37.598,48.828,189.453,17.090,0.000
1586465087.874,85.449,57.617,433.594,47.852,0.000
1586465087.878,122.070,73.730,451.660,91.797,0.000
1586465087.882,98.633,82.031,320.801,35.156,0.000
1586465087.886,45.898,88.379,346.680,-9.277,0.000
1586465087.890,20.020,99.609,504.395,38.086,0.000
1586465087.893,29.297,110.840,582.031,95.703,0.000
1586465087.897,25.879,118.164,576.660,62.012,0.000
1586465087.901,4.395,137.695,574.219,-2.441,0.000
1586465087.905,30.273,153.320,617.676,32.227,0.000
1586465087.909,45.410,154.785,652.832,93.262,0.000
1586465087.913,11.230,163.086,643.555,95.703,0.000
1586465087.917,-22.949,176.270,647.949,40.527,0.000
1586465087.921,-20.020,183.105,692.871,27.344,0.000
1586465087.925,7.324,189.941,670.410,42.480,0.000
1586465087.929,5.371,200.684,728.516,41.016,0.000
1586465087.933,-12.695,199.707,726.562,0.000,0.000
1586465087.936,-26.367,196.289,686.523,-41.016,0.000
1586465087.940,-2.441,198.242,631.348,-23.438,0.000
1586465087.944,45.898,200.195,578.613,6.348,0.000
1586465087.948,-10.742,194.336,631.836,-12.695,0.000
1586465087.952,-87.402,178.223,582.520,-49.805,0.000
1586465087.956,-50.293,177.246,529.297,-34.180,0.000
1586465087.960,-31.738,180.176,496.094,8.789,0.000
1586465087.964,-74.219,172.363,391.602,-15.625,0.000
1586465087.968,-122.070,161.621,226.074,-68.848,0.000
1586465087.972,-133.789,159.180,-45.898,-72.266,0.000
1586465087.975,-76.660,159.668,87.402,-55.664,0.000
1586465087.979,-68.848,156.738,272.461,-20.508,0.000
1586465087.983,-106.445,158.691,-157.227,-60.547,0.000
1586465087.987,-95.215,151.367,-502.930,-99.121,0.000
1586465087.991,-42.480,145.508,-334.473,-46.387,0.000
1586465087.995,-38.574,146.484,-293.945,-19.043,0.000
1586465087.999,-82.520,147.461,-546.875,-48.828,0.000
1586465088.003,-89.355,145.020,-778.809,-103.027,0.000
1586465088.007,-67.383,140.137,-747.070,-93.262,0.000
1586465088.011,-42.480,139.160,-744.141,-39.551,0.000
1586465088.015,-62.012,132.324,-888.184,-58.594,0.000
1586465088.018,-109.375,132.324,-978.516,-85.449,0.000
1586465088.022,-85.938,125.000,-891.113,-78.613,0.000
1586465088.026,-28.809,109.375,-877.441,-22.949,0.000
1586465088.030,-48.340,115.234,-908.691,-27.344,0.000
1586465088.034,-95.215,122.559,-929.688,-77.637,0.000
1586465088.038,-55.176,124.023,-944.336,-57.617,0.000
1586465088.042,-8.789,113.770,-917.480,-42.969,0.000
1586465088.046,-46.875,105.469,-895.020,-31.250,0.000
1586465088.050,-96.680,106.934,-921.875,-57.129,0.000
1586465088.054,-97.656,104.004,-957.520,-66.406,0.000
1586465088.058,-49.805,106.445,-906.738,-34.668,0.000
1586465088.061,-15.625,107.422,-926.758,4.395,0.000
1586465088.065,-51.270,104.980,-982.910,-18.066,0.000
1586465088.069,-70.312,108.887,-929.199,-72.266,0.000
1586465088.073,-33.203,111.328,-908.203,-35.645,0.000
1586465088.077,-0.977,109.863,-884.277,-1.953,0.000
1586465088.081,-21.484,105.469,-897.461,-65.430,0.000
1586465088.085,-65.918,96.680,-948.730,-89.844,0.000
1586465088.089,-49.805,93.750,-976.562,-48.828,0.000
1586465088.093,9.277,98.633,-915.039,-3.418,0.000
1586465088.097,5.371,91.309,-875.000,2.441,0.000
1586465088.100,-49.805,84.961,-973.633,-45.898,0.000
1586465088.104,-26.855,101.562,-964.844,-41.016,0.000
1586465088.108,30.762,107.910,-904.297,6.348,0.000
1586465088.112,25.879,104.004,-904.297,33.691,0.000
1586465088.116,-15.625,98.633,-937.988,18.066,0.000
1586465088.120,-33.691,93.750,-986.816,-25.879,0.000
1586465088.124,16.602,104.980,-955.566,-12.695,0.000
1586465088.128,58.105,112.793,-876.953,3.906,0.000
1586465088.132,26.855,109.375,-947.754,-19.531,0.000
1586465088.136,-12.695,98.633,-962.891,-29.785,0.000
1586465088.140,24.902,97.168,-880.859,-14.160,0.000
1586465088.143,68.359,107.422,-814.941,10.742,0.000
1586465088.147,28.320,109.863,-823.730,-5.371,0.000
1586465088.151,2.441,107.422,-934.570,-13.184,0.000
1586465088.155,33.691,106.934,-876.465,6.836,0.000
1586465088.159,62.988,101.074,-671.387,40.039,0.000
1586465088.163,54.199,90.332,-705.566,45.898,0.000
1586465088.167,26.367,90.332,-794.922,9.277,0.000
1586465088.171,25.391,83.984,-781.250,-8.301,0.000
1586465088.175,62.500,75.195,-666.016,5.859,0.000
1586465088.179,74.707,70.312,-697.754,16.113,0.000
1586465088.183,6.348,65.430,-824.707,-34.668,0.000
1586465088.186,-18.066,58.594,-777.344,-61.035,0.000
1586465088.190,29.785,58.105,-680.176,-19.531,0.000
1586465088.194,46.387,55.664,-745.605,10.254,0.000
1586465088.198,25.879,42.969,-853.516,-17.090,0.000
1586465088.202,3.418,37.109,-810.547,-41.504,0.000
1586465088.206,23.926,29.297,-751.465,-40.527,0.000
1586465088.210,53.223,24.902,-723.145,-9.766,0.000
1586465088.214,33.691,29.297,-739.746,-8.789,0.000
1586465088.218,12.695,28.320,-599.609,-57.129,0.000
1586465088.222,41.016,23.438,-511.230,-22.461,0.000
1586465088.225,53.711,16.602,-479.004,29.785,0.000
1586465088.229,38.086,15.625,-353.027,28.809,0.000
1586465088.233,4.395,16.113,-266.113,-28.809,0.000
1586465088.237,2.441,17.578,-210.449,-45.410,0.000
1586465088.241,48.340,17.090,-64.941,18.555,0.000
1586465088.245,40.527,8.301,180.664,33.691,0.000
1586465088.249,-0.488,5.859,305.664,-1.953,0.000
1586465088.253,7.324,2.441,181.641,-18.066,0.000
1586465088.257,34.180,-6.348,203.613,-7.812,0.000
1586465088.261,50.293,-13.184,302.734,13.672,0.000
1586465088.265,20.996,-11.230,292.969,-20.508,0.000
1586465088.268,-29.297,-12.695,212.402,-69.336,0.000
1586465088.272,-19.043,-12.207,237.793,-33.203,0.000
1586465088.276,16.113,-5.859,444.824,7.324,0.000
1586465088.280,2.441,-15.137,443.848,6.836,0.000
1586465088.284,-35.645,-24.414,310.059,-27.832,0.000
1586465088.288,-19.043,-29.785,279.297,-53.223,0.000
1586465088.292,15.137,-23.926,431.152,-7.324,0.000
1586465088.296,3.418,-15.137,527.344,-14.648,0.000
1586465088.300,-30.273,-21.484,288.574,-69.336,0.000
1586465088.304,-60.059,-22.461,230.957,-80.078,0.000
1586465088.308,-33.203,-22.949,510.254,-54.688,0.000
1586465088.311,-11.719,-27.344,582.520,-44.922,0.000
1586465088.315,-44.922,-31.250,373.535,-66.895,0.000
1586465088.319,-66.895,-27.344,286.133,-91.797,0.000
1586465088.323,-38.574,-28.809,437.500,-72.754,0.000
1586465088.327,-21.973,-46.875,476.562,-14.160,0.000
1586465088.331,-45.410,-52.734,418.457,-58.105,0.000
1586465088.335,-68.359,-46.387,243.652,-117.676,0.000
1586465088.339,-81.543,-48.340,242.676,-92.773,0.000
1586465088.343,-80.078,-59.082,417.480,-62.012,0.000
1586465088.347,-66.406,-77.148,27.832,-83.496,0.000
1586465088.350,-96.191,-87.891,-257.324,-155.762,0.000
1586465088.354,-94.727,-86.426,40.039,-139.160,0.000
1586465088.358,-47.852,-78.125,134.277,-82.520,0.000
1586465088.362,-53.711,-79.590,65.430,-84.961,0.000
1586465088.366,-65.430,-81.055,-246.094,-129.395,0.000
1586465088.370,-71.289,-81.055,-436.523,-126.465,0.000
1586465088.374,-52.246,-87.402,-446.289,-88.867,0.000
1586465088.378,-30.762,-78.125,-521.484,-70.312,0.000
1586465088.382,-56.641,-69.824,-593.750,-101.074,0.000
1586465088.386,-80.566,-79.102,-667.480,-149.902,0.000
1586465088.390,-76.660,-84.473,-728.027,-128.906,0.000
1586465088.393,-33.203,-82.520,-638.672,-74.219,0.000
1586465088.397,-21.484,-84.473,-585.938,-81.055,0.000
1586465088.401,-45.898,-80.078,-723.633,-120.605,0.000
1586465088.405,-38.086,-80.566,-847.656,-93.750,0.000
1586465088.409,-28.320,-85.938,-802.734,-28.320,0.000
1586465088.413,-4.395,-81.055,-681.152,-30.273,0.000
1586465088.417,-29.785,-80.078,-834.473,-85.938,0.000
1586465088.421,-67.383,-82.031,-818.359,-85.938,0.000
1586465088.425,-24.902,-87.402,-680.664,-42.969,0.000
1586465088.429,-8.789,-91.309,-700.195,-36.621,0.000
1586465088.433,-24.902,-86.914,-779.297,-46.387,0.000
1586465088.436,-39.062,-91.797,-893.555,-57.617,0.000
1586465088.440,-9.277,-94.238,-770.020,-45.898,0.000
1586465088.444,19.043,-83.008,-486.328,0.000,0.000
1586465088.448,-11.230,-89.844,-592.773,2.930,0.000
1586465088.452,-46.875,-86.914,-712.402,-44.434,0.000
1586465088.456,-16.602,-80.078,-573.730,-21.484,0.000
1586465088.460,16.602,-88.379,-412.598,29.785,0.000
1586465088.464,-2.441,-83.008,-516.113,-4.883,0.000
1586465088.468,-20.020,-75.684,-675.781,-22.461,0.000
1586465088.472,-21.484,-89.355,-569.336,-12.207,0.000
1586465088.475,18.066,-100.586,-427.246,22.461,0.000
1586465088.479,30.273,-97.656,-549.805,20.996,0.000
1586465088.483,-3.906,-110.352,-729.980,-23.438,0.000
1586465088.487,-11.719,-101.074,-491.211,1.465,0.000
1586465088.491,11.719,-82.031,-304.199,22.461,0.000
1586465088.495,29.297,-90.332,-291.992,7.812,0.000
1586465088.499,-1.465,-95.703,-396.973,-24.414,0.000
1586465088.503,-23.926,-97.168,-334.473,-21.484,0.000
1586465088.507,12.695,-96.191,-268.555,42.480,0.000
1586465088.511,34.668,-95.703,-92.773,66.895,0.000
1586465088.515,1.953,-101.562,152.832,15.625,0.000
1586465088.518,-17.578,-99.121,91.309,-26.855,0.000
1586465088.522,8.789,-88.379,88.867,0.977,0.000
1586465088.526,29.297,-88.867,49.805,55.664,0.000
1586465088.530,8.789,-99.121,86.426,23.926,0.000
1586465088.534,-22.949,-105.469,252.930,-43.945,0.000
1586465088.538,-16.113,-101.562,198.730,-16.602,0.000
1586465088.542,12.695,-96.191,303.223,31.250,0.000
1586465088.546,5.371,-95.215,379.395,22.461,0.000
1586465088.550,-20.020,-87.402,277.832,-3.418,0.000
1586465088.554,-13.184,-90.332,181.152,-15.625,0.000
1586465088.558,19.531,-92.773,292.480,0.977,0.000
1586465088.561,17.578,-84.961,399.414,56.641,0.000
1586465088.565,-15.625,-86.914,346.680,5.859,0.000
1586465088.569,-30.273,-83.008,150.879,-60.059,0.000
1586465088.573,4.883,-67.383,116.699,-3.418,0.000
1586465088.577,35.156,-71.289,428.223,54.688,0.000
1586465088.581,-1.465,-77.148,412.109,21.484,0.000
1586465088.585,-54.199,-62.012,160.156,-43.457,0.000
1586465088.589,-29.785,-51.270,219.727,-35.645,0.000
1586465088.593,25.391,-50.293,447.754,24.414,0.000
1586465088.597,-12.207,-54.688,387.695,26.367,0.000
1586465088.600,-51.758,-51.270,211.914,-46.875,0.000
1586465088.604,-44.434,-41.016,269.531,-63.965,0.000
1586465088.608,-11.230,-37.109,464.355,-25.391,0.000
1586465088.612,-1.465,-37.598,444.336,-18.555,0.000
1586465088.616,-37.598,-39.551,330.078,-40.527,0.000
1586465088.620,-52.246,-31.250,308.105,-40.527,0.000
1586465088.624,-24.902,-20.020,442.383,-22.461,0.000
