timestamps,TP9,AF7,AF8,TP10,Right AUX
1587070385.952,-290.039,-938.965,-263.672,-56.152,0.000
1587070385.956,-36.621,-921.387,-254.395,-104.004,0.000
1587070385.960,177.734,-518.066,103.516,-196.777,0.000
1587070385.964,-17.090,-489.746,136.719,-151.855,0.000
1587070385.968,-279.297,-893.066,-232.422,-56.641,0.000
1587070385.972,-135.254,-1000.000,-384.277,-84.473,0.000
1587070385.976,164.062,-688.477,-34.668,-183.594,0.000
1587070385.980,69.824,-396.973,228.027,-196.777,0.000
1587070385.984,-224.121,-763.184,-140.625,-104.004,0.000
1587070385.987,-193.848,-1000.000,-453.613,-92.285,0.000
1587070385.991,108.887,-640.625,-21.484,-196.777,0.000
1587070385.995,138.184,-248.047,285.156,-213.867,0.000
1587070385.999,-165.527,-622.559,-89.844,-88.867,0.000
1587070386.003,-265.137,-1000.000,-459.473,-13.184,0.000
1587070386.007,21.973,-797.363,-92.773,-103.027,0.000
1587070386.011,175.781,-251.953,277.344,-179.199,0.000
1587070386.015,-82.031,-553.711,-50.781,-94.238,0.000
1587070386.019,-273.926,-1000.000,-452.148,-9.766,0.000
1587070386.023,-47.852,-863.281,-215.820,-49.316,0.000
1587070386.027,180.176,-315.430,262.207,-107.910,0.000
1587070386.030,12.695,-562.500,-98.633,-51.270,0.000
1587070386.034,-257.324,-1000.000,-558.105,62.988,0.000
1587070386.038,-128.418,-806.152,-151.367,20.020,0.000
1587070386.042,176.270,-353.027,173.828,-100.586,0.000
1587070386.046,107.422,-526.367,48.340,-84.961,0.000
1587070386.050,-216.309,-943.359,-250.000,-4.395,0.000
1587070386.054,-202.637,-853.027,-218.262,-1.953,0.000
1587070386.058,119.629,-459.473,95.215,-86.426,0.000
1587070386.062,149.902,-400.391,173.340,-113.770,0.000
1587070386.066,-155.762,-864.258,-177.734,-48.828,0.000
1587070386.069,-242.676,-1000.000,-370.117,-41.016,0.000
1587070386.073,29.785,-713.867,-18.066,-111.816,0.000
1587070386.077,194.824,-730.469,-3.418,-208.984,0.000
1587070386.081,-55.664,-824.219,-125.977,-187.012,0.000
1587070386.085,-290.039,-765.137,-100.098,-105.957,0.000
1587070386.089,-80.566,-785.156,-70.312,-145.020,0.000
1587070386.093,219.238,-451.660,177.734,-206.055,0.000
1587070386.097,69.336,-417.969,139.648,-186.523,0.000
1587070386.101,-271.973,-843.262,-155.273,-125.000,0.000
1587070386.105,-176.758,-970.703,-307.129,-131.836,0.000
1587070386.109,128.906,-666.504,-67.871,-227.539,0.000
1587070386.112,98.145,-448.242,141.602,-246.094,0.000
1587070386.116,-207.031,-830.566,-142.090,-150.879,0.000
1587070386.120,-256.348,-1000.000,-486.328,-117.188,0.000
1587070386.124,54.688,-768.555,-214.844,-215.820,0.000
1587070386.128,154.297,-199.219,284.180,-222.656,0.000
1587070386.132,-115.234,-378.906,99.609,-101.562,0.000
1587070386.136,-269.043,-878.906,-253.906,-82.031,0.000
1587070386.140,-16.602,-681.152,-71.289,-135.742,0.000
1587070386.144,189.941,-169.922,255.371,-162.109,0.000
1587070386.148,-30.762,-307.129,112.793,-107.422,0.000
1587070386.152,-268.066,-853.516,-240.234,-15.137,0.000
1587070386.155,-65.918,-754.883,-112.793,-48.340,0.000
1587070386.159,200.195,-500.977,165.527,-208.984,0.000
1587070386.163,52.246,-707.520,44.434,-229.492,0.000
1587070386.167,-237.305,-988.770,-340.820,-104.492,0.000
1587070386.171,-174.316,-812.988,-193.359,-88.867,0.000
1587070386.175,158.203,-192.871,291.992,-182.617,0.000
1587070386.179,155.762,-199.219,178.223,-219.238,0.000
1587070386.183,-177.246,-758.301,-152.832,-150.879,0.000
1587070386.187,-200.684,-725.098,-74.707,-103.516,0.000
1587070386.191,97.656,-539.062,138.184,-185.059,0.000
1587070386.194,197.754,-552.734,112.793,-258.789,0.000
1587070386.198,-64.453,-637.207,53.223,-184.082,0.000
1587070386.202,-229.004,-794.434,-97.168,-108.887,0.000
1587070386.206,8.301,-759.277,-92.773,-184.570,0.000
1587070386.210,219.727,-717.285,-10.742,-261.230,0.000
1587070386.214,20.508,-897.949,-215.332,-208.008,0.000
1587070386.218,-235.352,-777.832,-203.125,-130.859,0.000
1587070386.222,-80.078,-718.262,-112.305,-123.535,0.000
1587070386.226,196.777,-576.660,141.113,-189.941,0.000
1587070386.230,98.633,-328.613,225.586,-182.129,0.000
1587070386.234,-206.055,-478.516,92.773,-103.027,0.000
1587070386.237,-164.062,-677.734,57.129,-142.090,0.000
1587070386.241,142.090,-526.855,157.715,-225.098,0.000
1587070386.245,176.758,-204.590,246.094,-197.266,0.000
1587070386.249,-133.789,-342.285,125.000,-83.984,0.000
1587070386.253,-225.586,-902.344,-233.887,-22.461,0.000
1587070386.257,71.289,-854.492,-191.406,-93.750,0.000
1587070386.261,213.379,-295.898,175.293,-166.016,0.000
1587070386.265,-40.527,-245.117,200.195,-97.656,0.000
1587070386.269,-249.023,-725.098,-105.469,-83.496,0.000
1587070386.273,-18.555,-957.520,-329.102,-220.215,0.000
1587070386.277,205.566,-422.363,70.801,-281.738,0.000
1587070386.280,8.301,-370.117,131.836,-242.676,0.000
1587070386.284,-235.840,-936.523,-366.699,-198.242,0.000
1587070386.288,-128.418,-958.008,-383.301,-236.328,0.000
1587070386.292,165.527,-377.930,125.488,-334.473,0.000
1587070386.296,122.070,-137.207,259.277,-310.547,0.000
1587070386.300,-175.781,-735.352,-296.875,-172.852,0.000
1587070386.304,-194.336,-1000.000,-536.621,-184.570,0.000
1587070386.308,118.164,-520.508,60.059,-335.938,0.000
1587070386.312,186.523,-76.172,297.363,-361.816,0.000
1587070386.316,-137.207,-588.867,-144.531,-262.695,0.000
1587070386.319,-251.953,-1000.000,-440.918,-212.891,0.000
1587070386.323,53.223,-553.223,3.906,-263.672,0.000
1587070386.327,231.934,-133.789,263.184,-320.312,0.000
1587070386.331,-20.020,-530.762,-15.625,-262.207,0.000
1587070386.335,-222.168,-954.102,-314.453,-163.086,0.000
1587070386.339,-34.180,-769.043,-194.824,-188.477,0.000
1587070386.343,223.145,-546.875,110.840,-256.836,0.000
1587070386.347,101.562,-778.320,-81.543,-215.332,0.000
1587070386.351,-206.543,-1000.000,-415.527,-166.016,0.000
1587070386.355,-135.254,-870.605,-238.281,-202.148,0.000
1587070386.359,169.434,-513.672,112.305,-273.438,0.000
1587070386.362,130.859,-681.641,-4.883,-248.047,0.000
1587070386.366,-175.293,-971.191,-317.383,-150.879,0.000
1587070386.370,-208.984,-873.535,-263.672,-148.926,0.000
1587070386.374,83.496,-594.727,67.383,-231.934,0.000
1587070386.378,174.316,-595.215,166.504,-248.535,0.000
1587070386.382,-101.074,-770.020,11.230,-214.355,0.000
1587070386.386,-245.117,-853.516,-166.016,-225.586,0.000
1587070386.390,13.672,-868.164,-221.191,-287.598,0.000
1587070386.394,210.938,-796.387,-52.246,-338.379,0.000
1587070386.398,0.488,-797.852,-45.410,-302.246,0.000
1587070386.402,-208.984,-960.449,-293.945,-253.906,0.000
1587070386.405,-59.570,-1000.000,-422.852,-299.805,0.000
1587070386.409,175.293,-748.047,-153.809,-365.234,0.000
1587070386.413,56.152,-293.457,242.676,-329.590,0.000
1587070386.417,-239.746,-656.738,-70.801,-238.281,0.000
1587070386.421,-181.152,-964.355,-281.250,-244.629,0.000
1587070386.425,125.488,-479.004,83.008,-322.754,0.000
1587070386.429,161.133,-83.496,266.113,-272.949,0.000
1587070386.433,-137.695,-537.598,5.859,-139.648,0.000
1587070386.437,-212.891,-986.816,-292.969,-93.262,0.000
1587070386.441,97.656,-826.660,-184.082,-136.719,0.000
1587070386.444,233.887,-474.121,169.922,-129.883,0.000
1587070386.448,-45.410,-571.289,89.844,-43.945,0.000
1587070386.452,-231.445,-987.793,-354.004,-16.113,0.000
1587070386.456,-0.488,-803.223,-125.000,-96.191,0.000
1587070386.460,233.398,-352.051,267.090,-164.062,0.000
1587070386.464,41.016,-467.773,114.258,-118.652,0.000
1587070386.468,-226.562,-921.875,-220.215,-39.551,0.000
1587070386.472,-103.027,-979.492,-275.391,-85.938,0.000
1587070386.476,181.152,-566.895,41.504,-174.805,0.000
1587070386.480,88.867,-501.953,120.605,-145.508,0.000
1587070386.484,-203.613,-944.336,-250.488,-29.785,0.000
1587070386.487,-134.766,-1000.000,-406.250,-1.953,0.000
1587070386.491,166.016,-658.203,16.113,-62.988,0.000
1587070386.495,186.523,-553.223,44.434,-63.477,0.000
1587070386.499,-111.328,-988.281,-412.109,15.137,0.000
1587070386.503,-204.102,-874.512,-267.090,52.246,0.000
1587070386.507,69.336,-467.285,75.195,-3.418,0.000
1587070386.511,207.520,-300.781,245.605,-72.754,0.000
1587070386.515,-38.086,-551.270,90.332,-38.086,0.000
1587070386.519,-235.352,-901.367,-266.113,77.148,0.000
1587070386.523,-15.625,-813.965,-159.668,45.410,0.000
1587070386.527,227.051,-441.895,197.266,-46.875,0.000
1587070386.530,48.340,-459.961,110.352,6.348,0.000
1587070386.534,-232.910,-880.859,-295.898,62.500,0.000
1587070386.538,-97.168,-978.516,-343.262,36.621,0.000
1587070386.542,187.988,-888.672,-254.395,-62.500,0.000
1587070386.546,125.488,-639.160,-12.695,-78.613,0.000
1587070386.550,-172.852,-597.168,-5.859,2.930,0.000
1587070386.554,-182.617,-1000.000,-384.277,11.230,0.000
1587070386.558,125.488,-766.602,-113.281,-66.406,0.000
1587070386.562,184.570,-210.938,254.883,-94.727,0.000
1587070386.566,-111.816,-608.887,-86.426,-6.836,0.000
1587070386.569,-235.352,-1000.000,-487.305,34.180,0.000
1587070386.573,44.922,-749.023,-173.828,-40.527,0.000
1587070386.577,220.215,-389.648,189.453,-85.449,0.000
1587070386.581,-16.602,-711.426,-43.457,-36.133,0.000
1587070386.585,-240.234,-1000.000,-506.836,58.105,0.000
1587070386.589,-50.781,-829.590,-379.883,32.227,0.000
1587070386.593,209.961,-196.777,215.820,-30.762,0.000
1587070386.597,52.734,-133.301,218.262,22.949,0.000
1587070386.601,-236.816,-747.070,-173.828,88.867,0.000
1587070386.605,-133.789,-812.012,-135.742,89.355,0.000
1587070386.609,170.410,-214.355,256.348,16.113,0.000
1587070386.612,132.812,-133.789,197.754,6.836,0.000
1587070386.616,-184.082,-772.461,-207.520,78.613,0.000
1587070386.620,-215.820,-929.688,-278.809,64.941,0.000
1587070386.624,78.613,-441.406,89.844,-8.301,0.000
1587070386.628,153.809,-405.273,199.707,-33.203,0.000
1587070386.632,-137.207,-835.449,-247.070,26.367,0.000
1587070386.636,-271.484,-1000.000,-498.047,81.055,0.000
1587070386.640,-3.418,-666.504,-39.062,40.039,0.000
1587070386.644,159.668,-268.066,213.379,-0.488,0.000
1587070386.648,-43.945,-537.109,79.102,58.594,0.000
1587070386.652,-275.879,-869.141,-160.645,146.484,0.000
1587070386.655,-120.605,-714.355,-85.938,154.785,0.000
1587070386.659,147.461,-521.973,145.020,82.031,0.000
1587070386.663,31.738,-611.328,74.707,89.844,0.000
1587070386.667,-243.164,-740.723,-101.074,162.109,0.000
1587070386.671,-182.129,-827.637,-217.773,153.320,0.000
1587070386.675,109.375,-879.395,-203.613,76.660,0.000
1587070386.679,115.234,-800.781,-72.754,54.199,0.000
1587070386.683,-193.359,-652.344,37.598,129.883,0.000
1587070386.687,-262.207,-716.309,-66.895,157.227,0.000
1587070386.691,39.062,-815.918,-215.820,89.355,0.000
1587070386.694,174.316,-888.672,-269.531,31.250,0.000
1587070386.698,-92.285,-638.672,56.641,73.242,0.000
1587070386.702,-274.902,-787.109,-138.184,123.047,0.000
1587070386.706,-45.410,-857.422,-229.492,68.848,0.000
1587070386.710,182.617,-397.949,130.371,-4.395,0.000
1587070386.714,-5.371,-256.836,213.379,0.488,0.000
1587070386.718,-273.438,-713.379,-86.914,61.035,0.000
1587070386.722,-122.559,-1000.000,-320.801,31.250,0.000
1587070386.726,168.945,-609.863,-0.977,-24.902,0.000
1587070386.730,89.844,-229.492,253.418,5.371,0.000
1587070386.734,-198.242,-677.734,-83.008,88.867,0.000
1587070386.737,-201.172,-1000.000,-363.281,107.910,0.000
1587070386.741,95.215,-453.613,62.012,25.391,0.000
1587070386.745,134.766,-5.859,321.777,-25.879,0.000
1587070386.749,-163.086,-526.855,-72.754,39.062,0.000
1587070386.753,-261.230,-1000.000,-413.574,83.008,0.000
1587070386.757,14.648,-800.293,-133.301,14.648,0.000
1587070386.761,163.574,-235.352,231.445,-57.617,0.000
1587070386.765,-92.285,-452.637,-10.254,16.113,0.000
1587070386.769,-283.203,-1000.000,-463.379,93.262,0.000
1587070386.773,-65.918,-859.863,-240.723,-3.906,0.000
1587070386.777,180.664,-206.055,274.414,-88.867,0.000
1587070386.780,5.371,-483.398,-77.637,-56.152,0.000
1587070386.784,-260.254,-1000.000,-533.203,30.762,0.000
1587070386.788,-137.695,-803.711,-112.305,34.180,0.000
1587070386.792,152.832,-366.699,213.379,-50.293,0.000
1587070386.796,104.004,-331.055,156.738,-44.922,0.000
1587070386.800,-193.359,-670.898,29.785,26.855,0.000
1587070386.804,-168.945,-615.723,129.395,29.297,0.000
1587070386.808,133.789,-283.203,221.191,-72.266,0.000
1587070386.812,188.965,-336.914,188.965,-78.613,0.000
1587070386.816,-99.609,-754.883,36.621,51.758,0.000
1587070386.819,-199.707,-945.312,-155.273,77.637,0.000
1587070386.823,76.660,-534.668,99.609,-1.953,0.000
1587070386.827,227.051,-606.445,25.879,-51.758,0.000
1587070386.831,-15.625,-693.848,-17.578,-11.719,0.000
1587070386.835,-232.422,-498.535,154.785,37.598,0.000
1587070386.839,-40.039,-611.816,92.285,25.391,0.000
1587070386.843,217.285,-284.668,241.211,-49.805,0.000
1587070386.847,73.242,-352.051,122.070,-73.730,0.000
1587070386.851,-202.637,-796.387,-190.430,1.465,0.000
1587070386.855,-120.605,-784.668,-196.289,-8.789,0.000
1587070386.859,156.738,-408.203,62.988,-113.281,0.000
1587070386.862,135.254,-175.293,214.355,-82.031,0.000
1587070386.866,-166.992,-708.984,-94.727,41.016,0.000
1587070386.870,-222.168,-1000.000,-479.980,59.082,0.000
1587070386.874,66.406,-781.250,-248.535,-18.066,0.000
1587070386.878,171.875,-151.367,243.164,-30.762,0.000
1587070386.882,-92.285,-209.473,132.324,61.523,0.000
1587070386.886,-228.516,-793.457,-223.633,86.914,0.000
1587070386.890,36.621,-656.738,-66.895,-1.953,0.000
1587070386.894,225.098,-22.461,303.711,-40.527,0.000
1587070386.898,12.695,-160.645,142.090,17.090,0.000
1587070386.902,-216.309,-806.152,-225.586,56.641,0.000
1587070386.905,-52.734,-724.609,-88.867,47.363,0.000
1587070386.909,201.172,-332.031,229.980,-38.086,0.000
1587070386.913,82.031,-458.984,145.020,-34.668,0.000
1587070386.917,-219.727,-922.852,-333.008,73.242,0.000
1587070386.921,-168.945,-874.023,-284.180,65.430,0.000
1587070386.925,137.695,-218.262,231.934,-37.598,0.000
1587070386.929,133.789,-183.594,173.828,-49.316,0.000
1587070386.933,-163.086,-720.215,-175.293,30.762,0.000
1587070386.937,-236.816,-668.457,-82.520,38.086,0.000
1587070386.941,48.340,-425.293,187.988,-37.109,0.000
1587070386.944,177.246,-500.977,92.773,-64.941,0.000
1587070386.948,-90.820,-652.344,-7.324,2.441,0.000
1587070386.952,-272.949,-745.117,-107.422,76.660,0.000
1587070386.956,-31.738,-672.363,-74.707,60.059,0.000
1587070386.960,205.078,-669.434,0.488,-19.531,0.000
1587070386.964,4.395,-853.027,-206.055,-9.766,0.000
1587070386.968,-259.277,-716.797,-160.645,60.547,0.000
1587070386.972,-117.676,-471.680,89.355,14.160,0.000
1587070386.976,165.527,-490.723,153.809,-50.293,0.000
1587070386.980,93.750,-454.102,130.859,-23.438,0.000
1587070386.984,-192.871,-459.961,96.191,44.434,0.000
1587070386.987,-171.387,-773.438,-132.812,56.152,0.000
1587070386.991,106.934,-641.113,-2.930,-0.977,0.000
1587070386.995,157.227,-176.758,249.023,-14.160,0.000
1587070386.999,-136.230,-333.008,110.840,78.613,0.000
1587070387.003,-243.164,-892.090,-225.098,151.855,0.000
1587070387.007,35.645,-1000.000,-356.445,86.914,0.000
1587070387.011,189.453,-501.953,30.273,15.625,0.000
1587070387.015,-54.688,-154.297,225.586,56.152,0.000
1587070387.019,-261.719,-693.848,-153.809,105.957,0.000
1587070387.023,-62.500,-751.953,-99.121,60.547,0.000
1587070387.027,197.266,-174.805,239.258,14.160,0.000
1587070387.030,45.898,-60.547,240.234,56.641,0.000
1587070387.034,-250.977,-688.477,-155.273,124.023,0.000
1587070387.038,-129.883,-882.324,-265.625,95.215,0.000
1587070387.042,178.711,-219.238,190.918,-7.324,0.000
1587070387.046,114.746,-157.715,191.406,-0.488,0.000
1587070387.050,-206.055,-750.000,-229.980,82.520,0.000
1587070387.054,-213.867,-1000.000,-445.801,93.262,0.000
1587070387.058,106.934,-608.398,-52.734,7.812,0.000
1587070387.062,175.781,-50.293,323.730,-41.504,0.000
1587070387.066,-117.188,-565.430,-139.160,41.016,0.000
1587070387.069,-240.234,-984.375,-452.637,110.352,0.000
1587070387.073,38.086,-461.426,72.266,37.598,0.000
1587070387.077,216.797,-61.523,260.742,-29.297,0.000
1587070387.081,-36.621,-423.828,0.000,24.414,0.000
1587070387.085,-255.371,-837.402,-258.301,93.262,0.000
1587070387.089,-65.430,-567.383,-29.297,63.965,0.000
1587070387.093,193.848,-204.102,214.355,-19.531,0.000
1587070387.097,57.617,-615.723,-103.516,-9.766,0.000
1587070387.101,-222.168,-1000.000,-347.168,95.215,0.000
1587070387.105,-146.484,-776.855,-187.500,100.586,0.000
1587070387.109,146.973,-531.738,101.074,2.441,0.000
1587070387.112,117.188,-694.336,-29.297,-23.438,0.000
1587070387.116,-186.035,-843.262,-246.582,62.500,0.000
1587070387.120,-213.379,-652.832,-110.352,72.754,0.000
1587070387.124,72.754,-554.199,59.570,-29.297,0.000
1587070387.128,164.062,-623.535,100.098,-54.199,0.000
1587070387.132,-110.840,-616.699,72.266,7.812,0.000
1587070387.136,-255.371,-621.094,49.316,61.035,0.000
1587070387.140,-2.930,-684.082,20.020,2.930,0.000
1587070387.144,196.289,-719.238,49.805,-66.895,0.000
1587070387.148,-17.090,-658.691,80.566,-14.160,0.000
1587070387.152,-267.578,-620.117,109.375,49.316,0.000
1587070387.155,-92.285,-873.047,-123.535,4.395,0.000
1587070387.159,177.246,-754.883,-114.258,-80.566,0.000
1587070387.163,69.336,-280.762,237.305,-52.734,0.000
1587070387.167,-215.820,-683.594,-80.566,46.875,0.000
1587070387.171,-163.086,-982.422,-288.574,27.344,0.000
1587070387.175,142.578,-491.699,66.895,-86.914,0.000
1587070387.179,150.391,-110.352,270.996,-96.191,0.000
1587070387.183,-151.367,-476.074,18.555,-8.301,0.000
1587070387.187,-202.637,-890.625,-272.949,32.227,0.000
1587070387.191,83.008,-816.406,-170.898,-61.035,0.000
1587070387.194,204.590,-433.105,160.156,-128.906,0.000
1587070387.198,-57.129,-415.039,145.508,-31.738,0.000
1587070387.202,-250.000,-916.992,-307.617,45.898,0.000
1587070387.206,-26.367,-693.848,-108.398,-18.555,0.000
1587070387.210,204.590,-116.211,269.043,-115.723,0.000
1587070387.214,20.508,-431.152,84.473,-91.309,0.000
1587070387.218,-253.906,-867.676,-153.320,25.879,0.000
1587070387.222,-113.281,-847.656,-250.977,30.762,0.000
1587070387.226,175.293,-661.133,-55.176,-100.098,0.000
1587070387.230,85.938,-669.434,37.598,-95.703,0.000
1587070387.234,-211.426,-840.820,-168.457,18.555,0.000
1587070387.237,-177.734,-909.180,-286.133,31.250,0.000
1587070387.241,125.488,-546.875,34.668,-70.312,0.000
1587070387.245,154.297,-485.840,54.199,-126.953,0.000
1587070387.249,-140.137,-972.168,-360.352,-25.391,0.000
1587070387.253,-223.145,-746.582,-158.691,22.461,0.000
1587070387.257,51.270,-349.609,132.812,-82.520,0.000
1587070387.261,207.520,-350.586,182.129,-143.555,0.000
1587070387.265,-46.387,-435.059,125.000,-62.012,0.000
1587070387.269,-255.371,-409.668,126.465,22.949,0.000
1587070387.273,-33.691,-345.215,167.480,-42.969,0.000
1587070387.277,212.402,-239.746,218.750,-141.113,0.000
1587070387.280,45.898,-271.973,192.871,-101.074,0.000
1587070387.284,-214.355,-716.797,-123.047,-6.348,0.000
1587070387.288,-107.910,-907.227,-243.652,-38.086,0.000
1587070387.292,159.668,-867.188,-251.465,-132.324,0.000
1587070387.296,116.211,-599.609,-48.340,-140.137,0.000
1587070387.300,-193.359,-421.387,123.535,-53.711,0.000
1587070387.304,-204.102,-788.574,-140.625,-20.508,0.000
1587070387.308,99.609,-549.316,18.555,-123.535,0.000
1587070387.312,169.434,-108.887,248.535,-174.805,0.000
1587070387.316,-114.258,-517.578,-10.742,-71.289,0.000
1587070387.319,-250.488,-1000.000,-388.184,-15.137,0.000
1587070387.323,10.254,-727.051,-138.672,-105.469,0.000
1587070387.327,174.805,-188.965,235.840,-179.688,0.000
1587070387.331,-38.086,-458.008,41.504,-128.418,0.000
1587070387.335,-251.953,-963.379,-368.652,-56.152,0.000
1587070387.339,-73.730,-878.418,-363.770,-92.773,0.000
1587070387.343,201.660,-436.523,125.977,-181.152,0.000
1587070387.347,73.242,-242.676,198.730,-157.715,0.000
1587070387.351,-221.191,-666.992,-108.398,-68.359,0.000
1587070387.355,-134.277,-753.906,-74.219,-92.285,0.000
1587070387.359,179.199,-245.117,229.492,-198.242,0.000
1587070387.362,141.602,-123.535,201.172,-194.824,0.000
1587070387.366,-174.805,-568.848,-40.527,-95.215,0.000
1587070387.370,-186.523,-735.840,-99.121,-76.172,0.000
1587070387.374,104.980,-348.633,154.785,-159.668,0.000
1587070387.378,188.965,-383.789,190.918,-194.336,0.000
1587070387.382,-76.172,-855.469,-244.629,-101.562,0.000
1587070387.386,-232.422,-909.180,-349.609,-13.184,0.000
1587070387.390,10.742,-446.289,108.398,-87.891,0.000
1587070387.394,204.102,-219.727,194.336,-189.453,0.000
1587070387.398,4.395,-445.801,124.023,-122.559,0.000
1587070387.402,-235.840,-778.809,-73.242,-12.695,0.000
1587070387.405,-82.031,-616.211,-26.855,-60.547,0.000
1587070387.409,189.941,-421.387,140.137,-135.254,0.000
1587070387.413,84.961,-548.828,64.453,-108.398,0.000
1587070387.417,-214.844,-612.793,30.762,-15.137,0.000
1587070387.421,-177.734,-577.637,73.242,-5.859,0.000
1587070387.425,140.625,-666.016,20.508,-118.164,0.000
1587070387.429,155.762,-885.742,-186.035,-139.648,0.000
1587070387.433,-157.227,-648.926,15.625,-41.992,0.000
1587070387.437,-229.004,-570.801,104.980,2.930,0.000
1587070387.441,50.781,-692.871,19.531,-81.543,0.000
1587070387.444,187.500,-510.742,97.168,-133.301,0.000
1587070387.448,-57.617,-341.309,164.551,-62.012,0.000
1587070387.452,-244.629,-637.207,19.043,-2.930,0.000
1587070387.456,-20.020,-765.625,-123.535,-66.406,0.000
1587070387.460,217.773,-587.891,22.949,-144.043,0.000
1587070387.464,36.133,-472.168,130.371,-102.051,0.000
1587070387.468,-234.863,-637.207,51.758,1.953,0.000
1587070387.472,-114.746,-924.805,-178.223,-16.602,0.000
1587070387.476,185.059,-693.359,-62.012,-129.883,0.000
1587070387.480,117.188,-289.551,210.449,-119.141,0.000
1587070387.484,-203.125,-580.078,24.414,-22.461,0.000
1587070387.487,-188.965,-964.355,-272.949,-19.531,0.000
1587070387.491,125.977,-541.992,6.836,-110.352,0.000
1587070387.495,167.969,-123.047,270.020,-141.113,0.000
1587070387.499,-138.672,-550.781,-30.762,-54.688,0.000
1587070387.503,-243.652,-1000.000,-346.191,0.000,0.000
1587070387.507,33.691,-756.836,-89.355,-87.402,0.000
1587070387.511,197.266,-189.941,279.297,-154.297,0.000
1587070387.515,-45.410,-494.629,-13.184,-72.266,0.000
1587070387.519,-255.859,-1000.000,-383.789,4.395,0.000
1587070387.523,-52.246,-940.918,-249.512,-56.152,0.000
1587070387.527,206.055,-463.867,178.223,-145.996,0.000
1587070387.530,46.387,-561.523,-1.953,-95.703,0.000
1587070387.534,-236.328,-987.793,-413.574,7.812,0.000
1587070387.538,-127.441,-634.766,-11.230,-18.555,0.000
1587070387.542,153.320,-207.520,252.930,-125.977,0.000
1587070387.546,102.051,-390.137,81.055,-141.113,0.000
1587070387.550,-202.148,-719.727,-46.875,-34.180,0.000
1587070387.554,-210.449,-708.008,-34.180,-5.371,0.000
1587070387.558,106.445,-471.680,89.844,-114.258,0.000
1587070387.562,177.734,-408.691,192.871,-160.156,0.000
1587070387.566,-131.348,-804.688,-22.461,-62.988,0.000
1587070387.569,-262.207,-947.754,-251.953,-9.277,0.000
1587070387.573,11.230,-611.328,17.090,-84.473,0.000
1587070387.577,184.570,-767.578,-90.820,-143.555,0.000
1587070387.581,-42.969,-895.508,-253.906,-87.402,0.000
1587070387.585,-272.461,-683.105,-79.590,-2.441,0.000
1587070387.589,-92.773,-697.266,7.324,-33.203,0.000
1587070387.593,165.039,-511.230,130.371,-118.652,0.000
1587070387.597,41.016,-518.555,107.422,-88.379,0.000
1587070387.601,-236.816,-785.645,-38.086,17.578,0.000
1587070387.605,-161.133,-856.934,-111.328,-2.441,0.000
1587070387.609,128.418,-654.785,8.301,-109.375,0.000
1587070387.612,99.121,-570.801,83.496,-105.957,0.000
1587070387.616,-192.383,-820.312,-85.938,-22.461,0.000
1587070387.620,-218.750,-956.543,-358.398,-5.859,0.000
1587070387.624,71.777,-838.867,-290.527,-90.820,0.000
1587070387.628,156.738,-306.641,201.660,-133.789,0.000
1587070387.632,-109.375,-435.059,107.910,-54.199,0.000
1587070387.636,-275.391,-986.816,-302.246,16.113,0.000
1587070387.640,-29.785,-793.457,-108.887,-48.340,0.000
1587070387.644,187.012,-176.758,281.250,-138.184,0.000
1587070387.648,-17.090,-288.086,141.113,-66.406,0.000
1587070387.652,-272.461,-868.652,-220.215,11.230,0.000
1587070387.655,-110.352,-865.234,-207.520,-44.434,0.000
1587070387.659,167.480,-583.984,98.633,-126.465,0.000
1587070387.663,61.523,-642.578,117.676,-109.375,0.000
1587070387.667,-234.863,-929.199,-335.449,0.488,0.000
1587070387.671,-191.895,-939.453,-374.512,38.574,0.000
1587070387.675,121.582,-373.047,186.035,-68.359,0.000
1587070387.679,139.648,-194.336,217.773,-93.750,0.000
1587070387.683,-142.578,-695.312,-106.445,-2.930,0.000
1587070387.687,-222.168,-806.641,-170.898,8.301,0.000
1587070387.691,54.199,-706.543,-63.477,-72.754,0.000
1587070387.694,192.383,-768.555,-6.836,-110.352,0.000
1587070387.698,-74.707,-825.195,-95.703,-47.852,0.000
1587070387.702,-266.113,-880.859,-250.000,2.930,0.000
1587070387.706,-34.668,-864.258,-206.055,-35.156,0.000
1587070387.710,212.402,-767.090,-26.855,-97.656,0.000
1587070387.714,15.137,-854.980,-156.250,-73.730,0.000
1587070387.718,-286.133,-777.832,-191.406,-36.133,0.000
1587070387.722,-158.203,-649.414,-16.113,-80.078,0.000
1587070387.726,182.129,-375.977,236.816,-102.051,0.000
1587070387.730,118.164,-130.371,274.414,-72.266,0.000
1587070387.734,-255.371,-455.078,7.324,-40.527,0.000
1587070387.737,-245.117,-838.867,-243.652,-52.734,0.000
1587070387.741,151.367,-578.613,62.012,-62.012,0.000
1587070387.745,207.520,-93.262,329.102,-43.457,0.000
1587070387.749,-160.156,-377.930,35.645,-12.695,0.000
1587070387.753,-296.387,-948.730,-314.453,-4.395,0.000
1587070387.757,38.574,-1000.000,-352.051,-24.414,0.000
1587070387.761,246.582,-508.789,58.594,10.742,0.000
1587070387.765,-54.199,-163.574,241.211,69.824,0.000
1587070387.769,-317.383,-841.797,-258.789,71.289,0.000
1587070387.773,-72.754,-869.629,-200.195,16.602,0.000
1587070387.777,241.211,-34.180,305.176,20.020,0.000
1587070387.780,60.547,49.805,270.508,37.598,0.000
1587070387.784,-298.340,-774.414,-297.363,23.926,0.000
1587070387.788,-174.805,-934.082,-360.840,14.648,0.000
1587070387.792,206.055,-208.496,237.793,9.766,0.000
1587070387.796,144.531,79.102,323.242,25.391,0.000
1587070387.800,-240.234,-651.367,-199.219,38.086,0.000
1587070387.804,-270.996,-1000.000,-438.477,44.922,0.000
1587070387.808,105.957,-468.750,75.684,20.020,0.000
1587070387.812,211.426,-41.504,333.496,1.465,0.000
1587070387.816,-139.648,-605.957,-222.656,21.973,0.000
1587070387.819,-331.543,-1000.000,-595.703,25.879,0.000
1587070387.823,-6.348,-610.352,-14.160,9.766,0.000
1587070387.827,246.582,-6.348,348.145,20.020,0.000
1587070387.831,-37.109,-389.648,6.348,40.039,0.000
1587070387.835,-323.730,-1000.000,-397.949,27.832,0.000
1587070387.839,-98.145,-814.453,-177.734,13.184,0.000
1587070387.843,235.840,-194.336,239.746,0.977,0.000
1587070387.847,76.172,-442.871,58.594,-11.230,0.000
1587070387.851,-287.109,-1000.000,-384.277,-5.859,0.000
1587070387.855,-198.242,-887.207,-261.230,-19.043,0.000
1587070387.859,180.176,-314.941,187.012,-27.832,0.000
1587070387.862,173.828,-484.863,43.457,-12.207,0.000
1587070387.866,-201.660,-922.363,-290.039,-3.906,0.000
1587070387.870,-275.879,-937.500,-345.215,-14.160,0.000
1587070387.874,95.215,-754.883,-62.988,-16.113,0.000
1587070387.878,242.676,-476.074,213.379,-7.812,0.000
1587070387.882,-84.961,-614.258,55.664,10.742,0.000
1587070387.886,-301.270,-866.699,-228.516,1.953,0.000
1587070387.890,-24.902,-871.094,-235.352,-16.113,0.000
1587070387.894,235.352,-570.312,104.980,-1.465,0.000
1587070387.898,-6.348,-469.238,148.926,-2.930,0.000
1587070387.902,-313.477,-820.801,-186.523,-13.184,0.000
1587070387.905,-125.977,-1000.000,-462.891,-4.883,0.000
1587070387.909,233.398,-724.121,-125.000,-2.441,0.000
1587070387.913,104.492,-153.809,305.664,-7.324,0.000
1587070387.917,-271.484,-627.441,-144.043,-4.883,0.000
1587070387.921,-231.445,-1000.000,-394.531,-22.949,0.000
1587070387.925,141.113,-393.066,127.441,-31.738,0.000
1587070387.929,179.688,34.180,328.613,-15.137,0.000
1587070387.933,-198.730,-628.906,-140.137,2.930,0.000
1587070387.937,-292.480,-1000.000,-468.262,13.184,0.000
1587070387.941,72.266,-846.680,-134.766,20.508,0.000
1587070387.944,223.145,-277.344,276.367,31.250,0.000
1587070387.948,-88.379,-408.691,36.133,46.387,0.000
1587070387.952,-325.195,-1000.000,-523.926,53.711,0.000
1587070387.956,-59.570,-781.738,-196.777,46.387,0.000
1587070387.960,242.188,-28.809,356.445,24.902,0.000
1587070387.964,28.809,-231.445,111.816,41.992,0.000
1587070387.968,-307.129,-960.938,-382.812,30.762,0.000
1587070387.972,-160.645,-1000.000,-401.367,10.742,0.000
1587070387.976,205.078,-425.293,100.586,38.574,0.000
1587070387.980,136.230,-120.605,251.465,52.246,0.000
1587070387.984,-228.516,-802.734,-251.953,21.973,0.000
1587070387.987,-224.609,-1000.000,-459.961,16.113,0.000
1587070387.991,136.230,-627.930,26.855,18.066,0.000
1587070387.995,188.477,-511.230,83.496,17.090,0.000
1587070387.999,-163.086,-989.258,-404.297,33.691,0.000
1587070388.003,-304.199,-1000.000,-364.258,-11.719,0.000
1587070388.007,19.531,-623.535,-8.301,-29.297,0.000
1587070388.011,254.395,-234.863,288.086,1.465,0.000
1587070388.015,-37.598,-380.859,147.949,-2.930,0.000
1587070388.019,-323.730,-822.266,-231.934,-8.789,0.000
1587070388.023,-73.730,-769.531,-121.582,-19.043,0.000
1587070388.027,246.094,-319.824,287.598,-27.344,0.000
1587070388.030,66.406,-272.461,191.895,-31.738,0.000
1587070388.034,-288.574,-825.195,-309.082,-43.945,0.000
1587070388.038,-171.387,-963.379,-343.750,-39.062,0.000
1587070388.042,208.496,-838.379,-109.375,-4.883,0.000
1587070388.046,171.875,-579.590,78.125,6.348,0.000
1587070388.050,-209.961,-640.625,-103.027,-10.254,0.000
1587070388.054,-258.301,-1000.000,-465.820,-54.688,0.000
1587070388.058,114.258,-687.988,-54.199,-67.383,0.000
1587070388.062,226.562,15.625,346.680,-34.180,0.000
1587070388.066,-130.859,-475.098,-58.594,-21.484,0.000
1587070388.069,-306.641,-1000.000,-523.438,-20.996,0.000
1587070388.073,7.324,-720.215,-115.234,-18.066,0.000
1587070388.077,254.883,-3.906,301.758,-1.953,0.000
1587070388.081,-13.184,-418.945,1.953,-0.488,0.000
1587070388.085,-297.363,-1000.000,-551.758,-20.020,0.000
1587070388.089,-85.938,-897.949,-472.168,-28.320,0.000
1587070388.093,235.352,-161.133,228.516,-16.602,0.000
1587070388.097,105.957,53.711,262.695,2.441,0.000
1587070388.101,-258.301,-736.328,-265.625,-19.531,0.000
1587070388.105,-185.547,-963.867,-325.195,-49.805,0.000
1587070388.109,185.547,-450.684,130.371,-34.668,0.000
1587070388.112,179.199,-109.863,264.648,-28.809,0.000
1587070388.116,-178.223,-625.977,-117.676,-24.902,0.000
1587070388.120,-270.020,-999.512,-333.496,-29.297,0.000
1587070388.124,74.219,-477.539,41.504,-48.340,0.000
1587070388.128,229.004,-248.047,264.648,-25.391,0.000
1587070388.132,-107.422,-717.285,-232.910,-25.879,0.000
1587070388.136,-334.473,-1000.000,-533.203,-46.387,0.000
1587070388.140,-42.969,-614.258,-1.465,-59.570,0.000
1587070388.144,214.844,-125.977,254.883,-65.430,0.000
1587070388.148,-14.648,-433.594,107.422,-53.223,0.000
1587070388.152,-318.359,-857.910,-200.195,-42.480,0.000
1587070388.155,-136.230,-771.973,-235.352,-55.664,0.000
1587070388.159,213.867,-449.707,136.719,-51.758,0.000
1587070388.163,116.211,-436.523,155.762,-36.621,0.000
1587070388.167,-262.695,-815.918,-281.738,-33.203,0.000
1587070388.171,-244.629,-924.805,-367.676,-39.551,0.000
1587070388.175,152.344,-754.883,-72.754,-46.387,0.000
1587070388.179,204.102,-667.480,81.543,-14.648,0.000
1587070388.183,-181.152,-598.633,-17.090,-3.418,0.000
1587070388.187,-295.898,-864.746,-326.660,-37.598,0.000
1587070388.191,57.617,-812.500,-166.504,-44.434,0.000
1587070388.194,231.445,-256.348,212.402,-38.574,0.000
1587070388.198,-71.777,-187.500,183.105,-39.551,0.000
1587070388.202,-316.895,-866.211,-294.434,-32.715,0.000
1587070388.206,-52.734,-991.211,-358.398,-36.133,0.000
1587070388.210,251.953,-282.715,166.016,-31.250,0.000
1587070388.214,43.457,-76.172,240.723,-20.020,0.000
1587070388.218,-286.133,-737.793,-245.117,-21.973,0.000
1587070388.222,-151.367,-1000.000,-407.715,-25.879,0.000
1587070388.226,222.168,-591.797,29.785,-29.785,0.000
1587070388.230,161.621,-178.223,286.621,-33.203,0.000
1587070388.234,-232.910,-617.188,-116.699,-40.039,0.000
1587070388.237,-239.258,-1000.000,-460.449,-52.734,0.000
1587070388.241,154.785,-520.996,20.996,-34.668,0.000
1587070388.245,229.980,7.812,338.379,-24.414,0.000
1587070388.249,-145.996,-485.352,-110.840,-34.668,0.000
1587070388.253,-287.598,-1000.000,-520.996,-41.504,0.000
1587070388.257,54.199,-736.816,-81.055,-33.203,0.000
1587070388.261,282.227,-50.293,326.660,-34.668,0.000
1587070388.265,-31.738,-386.719,16.113,-35.645,0.000
1587070388.269,-338.867,-1000.000,-454.102,-33.203,0.000
1587070388.273,-94.238,-958.008,-313.965,-27.344,0.000
1587070388.277,251.465,-232.422,251.953,-24.414,0.000
1587070388.280,76.172,-306.152,20.508,-35.156,0.000
1587070388.284,-301.758,-1000.000,-597.656,-46.387,0.000
1587070388.288,-188.965,-880.371,-255.859,-54.688,0.000
1587070388.292,198.242,-156.738,230.957,-47.363,0.000
1587070388.296,166.992,-18.555,295.410,-26.855,0.000
1587070388.300,-229.980,-625.488,-72.266,-36.621,0.000
1587070388.304,-274.902,-890.625,-297.852,-68.359,0.000
1587070388.308,119.141,-363.770,110.352,-48.340,0.000
1587070388.312,223.633,-117.188,286.621,-29.297,0.000
1587070388.316,-143.555,-724.121,-152.832,-35.645,0.000
1587070388.319,-313.477,-1000.000,-467.773,-43.945,0.000
1587070388.323,14.160,-641.113,-61.523,-45.410,0.000
1587070388.327,253.906,-556.152,71.777,-23.926,0.000
1587070388.331,5.371,-668.945,-7.812,-13.672,0.000
1587070388.335,-295.410,-755.371,-163.086,-23.926,0.000
1587070388.339,-122.070,-828.613,-244.629,-25.391,0.000
1587070388.343,233.398,-719.727,-60.059,-28.809,0.000
1587070388.347,94.727,-656.250,60.547,-13.672,0.000
1587070388.351,-294.434,-846.191,-194.336,-21.484,0.000
1587070388.355,-209.473,-1000.000,-404.297,-39.551,0.000
1587070388.359,133.789,-599.609,-33.691,-31.738,0.000
1587070388.362,129.883,-277.344,193.848,-24.902,0.000
1587070388.366,-177.734,-718.750,-136.230,-20.020,0.000
1587070388.370,-292.480,-1000.000,-553.223,-6.348,0.000
1587070388.374,66.895,-762.207,-220.215,-12.695,0.000
1587070388.378,242.188,13.672,345.215,-20.508,0.000
1587070388.382,-83.496,-177.246,115.234,-10.742,0.000
1587070388.386,-314.453,-897.949,-293.457,-20.996,0.000
1587070388.390,-26.855,-628.418,-36.133,-15.625,0.000
1587070388.394,254.883,144.043,375.977,-4.883,0.000
1587070388.398,6.836,11.719,179.199,-0.488,0.000
1587070388.402,-286.133,-843.750,-322.266,-0.488,0.000
1587070388.405,-110.840,-864.746,-189.453,-2.441,0.000
1587070388.409,208.984,-294.434,255.371,10.742,0.000
1587070388.413,107.422,-351.562,152.344,21.484,0.000
1587070388.417,-261.719,-872.070,-285.645,18.555,0.000
1587070388.421,-230.469,-965.332,-331.055,-4.395,0.000
1587070388.425,171.387,-273.438,191.895,-10.254,0.000
1587070388.429,208.496,70.801,282.227,1.465,0.000
1587070388.433,-176.758,-690.918,-249.512,4.883,0.000
1587070388.437,-281.738,-1000.000,-403.320,-18.066,0.000
1587070388.441,64.941,-619.141,-30.762,-46.387,0.000
1587070388.444,254.883,-272.949,194.824,-33.691,0.000
1587070388.448,-55.664,-398.926,88.379,-40.527,0.000
1587070388.452,-288.086,-851.074,-243.652,-37.598,0.000
1587070388.456,-26.367,-854.004,-222.168,-28.809,0.000
1587070388.460,243.164,-562.500,66.895,-29.785,0.000
1587070388.464,39.551,-768.555,-144.531,-31.250,0.000
1587070388.468,-293.945,-911.133,-335.938,-50.781,0.000
1587070388.472,-155.762,-677.246,-164.062,-77.148,0.000
1587070388.476,215.332,-322.266,174.316,-91.797,0.000
1587070388.480,152.832,-238.281,232.910,-70.312,0.000
1587070388.484,-214.844,-491.699,-28.320,-67.871,0.000
1587070388.487,-229.004,-839.844,-296.875,-94.727,0.000
1587070388.491,144.531,-562.988,41.504,-103.027,0.000
1587070388.495,233.887,-4.395,343.262,-80.078,0.000
1587070388.499,-143.555,-328.125,17.090,-71.777,0.000
1587070388.503,-296.387,-957.031,-347.656,-64.941,0.000
1587070388.507,30.273,-1000.000,-369.141,-57.129,0.000
1587070388.511,253.906,-471.680,49.316,-52.734,0.000
1587070388.515,-19.043,-123.535,235.840,-55.664,0.000
1587070388.519,-301.758,-837.891,-302.246,-79.102,0.000
1587070388.523,-83.008,-871.582,-208.008,-78.125,0.000
1587070388.527,248.047,-52.734,308.594,-70.312,0.000
1587070388.530,94.727,53.711,253.906,-56.641,0.000
1587070388.534,-262.695,-750.977,-306.641,-64.941,0.000
1587070388.538,-182.617,-958.984,-411.621,-92.285,0.000
1587070388.542,193.848,-237.793,182.129,-75.684,0.000
1587070388.546,175.781,19.531,304.688,-62.988,0.000
1587070388.550,-196.777,-704.590,-330.566,-54.688,0.000
1587070388.554,-254.395,-1000.000,-560.547,-61.523,0.000
1587070388.558,121.094,-398.926,120.605,-67.383,0.000
1587070388.562,244.629,148.926,369.629,-61.523,0.000
1587070388.566,-107.422,-420.898,-49.805,-62.012,0.000
1587070388.569,-293.457,-1000.000,-400.391,-58.105,0.000
1587070388.573,14.648,-558.594,-9.766,-49.316,0.000
1587070388.577,262.695,77.148,336.426,-54.199,0.000
1587070388.581,1.465,-326.660,34.668,-41.016,0.000
1587070388.585,-294.922,-955.078,-345.215,-38.086,0.000
1587070388.589,-100.586,-715.332,-105.469,-85.449,0.000
1587070388.593,245.117,-49.316,315.430,-73.242,0.000
1587070388.597,103.027,-372.559,38.574,-49.316,0.000
1587070388.601,-274.414,-1000.000,-389.648,-61.523,0.000
1587070388.605,-190.918,-904.297,-271.484,-63.965,0.000
1587070388.609,189.453,-341.309,144.531,-52.246,0.000
1587070388.612,185.059,-455.566,45.410,-17.578,0.000
1587070388.616,-184.570,-932.129,-308.105,-13.184,0.000
1587070388.620,-265.137,-874.512,-278.809,-18.066,0.000
1587070388.624,113.770,-527.832,71.777,-27.344,0.000
1587070388.628,269.531,-333.008,233.398,-41.992,0.000
1587070388.632,-84.961,-519.043,68.359,-18.555,0.000
1587070388.636,-306.152,-893.066,-260.742,-25.391,0.000
1587070388.640,-17.090,-954.102,-265.625,-36.133,0.000
1587070388.644,268.555,-576.172,110.840,-13.184,0.000
1587070388.648,39.062,-442.383,150.391,-3.418,0.000
1587070388.652,-295.898,-758.301,-163.574,0.488,0.000
1587070388.655,-126.953,-1000.000,-434.082,2.930,0.000
1587070388.659,246.582,-711.426,-108.398,3.418,0.000
1587070388.663,149.902,-50.781,311.523,15.137,0.000
1587070388.667,-244.141,-460.938,-57.129,5.859,0.000
1587070388.671,-218.750,-986.328,-354.980,-19.043,0.000
1587070388.675,191.406,-440.918,84.473,-1.953,0.000
1587070388.679,246.582,132.812,344.727,33.203,0.000
1587070388.683,-146.484,-353.516,51.270,26.367,0.000
1587070388.687,-284.668,-982.422,-314.941,0.000,0.000
1587070388.691,57.129,-754.883,-97.168,-8.301,0.000
1587070388.694,258.301,-345.215,253.906,-17.090,0.000
1587070388.698,-64.453,-602.051,-17.090,-24.902,0.000
1587070388.702,-330.078,-1000.000,-523.926,-42.480,0.000
1587070388.706,-38.574,-773.438,-196.289,-49.805,0.000
1587070388.710,275.879,58.105,380.371,-17.090,0.000
1587070388.714,66.406,-74.219,171.875,3.906,0.000
1587070388.718,-273.926,-916.016,-324.707,-18.555,0.000
1587070388.722,-161.133,-1000.000,-326.172,-39.551,0.000
1587070388.726,217.773,-270.020,201.660,-27.344,0.000
1587070388.730,166.016,-82.031,224.609,-11.230,0.000
1587070388.734,-239.746,-825.195,-269.531,-13.672,0.000
1587070388.737,-248.047,-1000.000,-406.738,-33.691,0.000
1587070388.741,146.973,-568.359,60.059,-37.598,0.000
1587070388.745,241.211,-383.301,136.230,-19.531,0.000
1587070388.749,-122.070,-933.594,-336.426,-16.113,0.000
1587070388.753,-266.113,-996.582,-358.887,-21.484,0.000
1587070388.757,59.082,-699.707,-56.152,-16.602,0.000
1587070388.761,259.277,-307.617,246.094,-1.953,0.000
1587070388.765,-34.180,-332.031,147.949,11.230,0.000
1587070388.769,-324.707,-757.812,-214.355,-11.719,0.000
1587070388.773,-80.566,-756.836,-202.148,-20.508,0.000
1587070388.777,252.930,-270.508,233.398,-5.371,0.000
1587070388.780,82.520,-148.438,229.492,-1.465,0.000
1587070388.784,-276.367,-764.160,-275.879,-11.230,0.000
1587070388.788,-177.246,-987.305,-366.211,-44.922,0.000
1587070388.792,201.660,-889.160,-214.355,-31.250,0.000
1587070388.796,179.688,-590.820,33.691,2.930,0.000
1587070388.800,-220.215,-513.184,-2.441,3.418,0.000
1587070388.804,-271.973,-1000.000,-389.160,18.555,0.000
1587070388.808,130.371,-664.551,-40.039,6.836,0.000
1587070388.812,252.930,57.129,354.004,-6.348,0.000
1587070388.816,-99.609,-430.176,-57.129,3.418,0.000
1587070388.819,-296.875,-1000.000,-551.270,1.465,0.000
1587070388.823,21.973,-740.723,-148.438,3.418,0.000
1587070388.827,278.809,0.977,320.801,0.000,0.000
1587070388.831,22.949,-355.469,62.012,4.883,0.000
1587070388.835,-275.391,-1000.000,-497.559,-1.465,0.000
1587070388.839,-125.000,-909.180,-487.793,-23.438,0.000
1587070388.843,219.727,-183.105,206.543,-1.953,0.000
1587070388.847,117.676,86.914,278.809,19.043,0.000
1587070388.851,-261.230,-680.176,-227.539,-1.465,0.000
1587070388.855,-209.961,-962.891,-307.617,-21.484,0.000
1587070388.859,176.758,-286.133,167.480,-17.578,0.000
1587070388.862,195.801,37.109,301.758,-17.578,0.000
1587070388.866,-191.406,-622.070,-118.164,-45.898,0.000
1587070388.870,-260.742,-1000.000,-414.551,-49.805,0.000
1587070388.874,99.121,-707.031,-50.781,-30.273,0.000
1587070388.878,234.863,-276.855,289.551,-16.113,0.000
1587070388.882,-89.844,-650.879,-194.336,-9.277,0.000
1587070388.886,-318.848,-1000.000,-499.023,-21.484,0.000
1587070388.890,-9.766,-566.895,17.090,-30.762,0.000
1587070388.894,280.273,-0.977,298.340,-14.648,0.000
1587070388.898,28.809,-287.598,111.328,-6.836,0.000
1587070388.902,-291.504,-871.582,-240.723,-25.879,0.000
1587070388.905,-116.211,-691.406,-138.184,-33.691,0.000
1587070388.909,241.699,-339.355,202.148,-6.836,0.000
1587070388.913,155.762,-302.734,232.422,20.996,0.000
1587070388.917,-223.145,-600.586,-79.102,-12.695,0.000
1587070388.921,-212.402,-851.562,-299.805,-43.945,0.000
1587070388.925,173.828,-729.004,-81.543,-37.598,0.000
1587070388.929,219.238,-639.160,89.355,-32.715,0.000
1587070388.933,-152.344,-713.867,-86.914,-35.645,0.000
1587070388.937,-287.598,-945.801,-367.188,-45.410,0.000
1587070388.941,55.664,-794.922,-107.422,-58.594,0.000
1587070388.944,250.000,-252.930,240.234,-66.406,0.000
1587070388.948,-53.711,-199.707,137.207,-46.875,0.000
1587070388.952,-305.176,-871.094,-295.410,-37.109,0.000
1587070388.956,-41.992,-908.691,-237.793,-52.246,0.000
1587070388.960,272.461,-199.219,211.914,-45.410,0.000
1587070388.964,62.500,-54.199,239.746,-28.809,0.000
1587070388.968,-300.781,-736.328,-238.770,-39.062,0.000
1587070388.972,-144.531,-1000.000,-432.129,-30.762,0.000
1587070388.976,245.605,-512.695,78.125,-20.996,0.000
1587070388.980,175.781,10.742,335.938,-29.297,0.000
1587070388.984,-225.586,-547.363,-128.906,-35.156,0.000
1587070388.987,-249.023,-1000.000,-480.469,-43.457,0.000
1587070388.991,136.230,-597.656,-13.672,-40.527,0.000
1587070388.995,218.262,-22.949,363.281,-32.715,0.000
1587070388.999,-136.719,-385.254,-49.805,-2.930,0.000
1587070389.003,-299.805,-1000.000,-512.207,-24.414,0.000
1587070389.007,33.203,-817.871,-141.113,-66.406,0.000
1587070389.011,275.879,-38.574,328.125,-58.594,0.000
1587070389.015,-15.137,-248.047,93.750,-38.574,0.000
1587070389.019,-307.129,-1000.000,-431.152,-33.691,0.000
1587070389.023,-85.449,-840.820,-203.613,-38.574,0.000
1587070389.027,239.258,-10.254,337.891,-29.297,0.000
1587070389.030,79.590,-269.043,27.344,-26.855,0.000
1587070389.034,-298.828,-1000.000,-498.047,-36.621,0.000
1587070389.038,-215.332,-854.980,-233.398,-54.199,0.000
1587070389.042,168.457,-152.344,213.379,-51.270,0.000
1587070389.046,136.719,-26.855,300.293,-60.547,0.000
1587070389.050,-269.531,-709.473,-122.070,-81.055,0.000
1587070389.054,-349.121,-968.262,-364.258,-121.094,0.000
1587070389.058,14.160,-398.926,91.309,-146.973,0.000
1587070389.062,132.812,-52.734,331.055,-130.371,0.000
1587070389.066,-245.605,-623.047,-111.816,-143.066,0.000
1587070389.069,-452.148,-1000.000,-453.613,-173.828,0.000
1587070389.073,-149.902,-563.477,-16.113,-190.430,0.000
1587070389.077,83.984,-566.895,9.766,-198.242,0.000
1587070389.081,-191.895,-766.113,-104.980,-195.801,0.000
1587070389.085,-505.859,-771.973,-186.523,-196.289,0.000
1587070389.089,-312.012,-910.645,-314.941,-216.309,0.000
1587070389.093,58.594,-345.703,132.812,-180.176,0.000
1587070389.097,-68.359,-214.355,203.613,-172.852,0.000
1587070389.101,-450.195,-803.223,-219.238,-198.242,0.000
1587070389.105,-368.164,-1000.000,-432.617,-173.340,0.000
1587070389.109,32.227,-714.844,-106.445,-168.457,0.000
1587070389.112,63.477,-352.539,215.332,-159.180,0.000
1587070389.116,-307.617,-771.973,-180.176,-133.789,0.000
1587070389.120,-401.367,-1000.000,-568.848,-136.230,0.000
1587070389.124,-22.949,-832.031,-294.434,-121.582,0.000
1587070389.128,156.738,-131.836,274.902,-96.680,0.000
1587070389.132,-143.066,-165.527,168.457,-74.219,0.000
1587070389.136,-365.234,-893.555,-323.730,-61.523,0.000
1587070389.140,-81.543,-745.605,-106.445,-66.895,0.000
1587070389.144,227.539,-26.367,319.824,-49.805,0.000
1587070389.148,12.695,-146.973,149.414,-13.672,0.000
1587070389.152,-315.918,-861.328,-283.691,-29.297,0.000
1587070389.155,-127.930,-929.688,-327.637,-48.340,0.000
1587070389.159,264.160,-554.688,36.133,-15.137,0.000
1587070389.163,157.715,-587.402,111.816,-0.488,0.000
1587070389.167,-238.770,-944.336,-452.637,7.324,0.000
1587070389.171,-209.961,-992.676,-578.125,8.789,0.000
1587070389.175,207.031,-384.766,81.055,26.367,0.000
1587070389.179,261.230,-65.430,248.535,40.527,0.000
1587070389.183,-134.766,-723.145,-214.355,45.898,0.000
1587070389.187,-264.648,-1000.000,-436.523,16.113,0.000
1587070389.191,99.121,-784.180,-166.504,-3.906,0.000
1587070389.194,308.105,-454.102,112.305,30.273,0.000
1587070389.198,9.277,-666.016,-134.766,44.922,0.000
1587070389.202,-235.352,-993.164,-446.289,33.691,0.000
1587070389.206,7.812,-921.875,-333.008,19.043,0.000
1587070389.210,279.297,-743.652,-75.195,23.438,0.000
1587070389.214,107.910,-878.418,-210.449,33.203,0.000
1587070389.218,-242.188,-984.863,-406.738,25.391,0.000
1587070389.222,-123.047,-845.703,-262.695,35.156,0.000
1587070389.226,272.949,-576.660,64.941,43.945,0.000
1587070389.230,214.355,-419.434,188.477,60.547,0.000
1587070389.234,-165.039,-657.227,-107.910,54.688,0.000
1587070389.237,-194.824,-967.773,-386.230,20.996,0.000
1587070389.241,179.688,-682.129,-109.375,19.531,0.000
1587070389.245,296.387,-186.035,229.492,54.199,0.000
1587070389.249,-73.730,-453.613,-55.176,45.410,0.000
1587070389.253,-257.812,-990.723,-448.242,19.043,0.000
1587070389.257,81.543,-1000.000,-415.527,8.301,0.000
1587070389.261,310.547,-573.242,-21.973,3.418,0.000
1587070389.265,20.508,-316.895,156.250,13.672,0.000
1587070389.269,-266.602,-913.574,-337.402,25.391,0.000
1587070389.273,-41.992,-878.906,-287.109,22.461,0.000
1587070389.277,309.082,-142.090,241.211,18.555,0.000
1587070389.280,110.840,-171.875,170.410,22.949,0.000
1587070389.284,-290.527,-881.836,-416.016,20.020,0.000
1587070389.288,-150.391,-1000.000,-505.859,20.996,0.000
1587070389.292,233.398,-447.266,81.055,3.906,0.000
1587070389.296,176.270,-35.645,305.176,-3.418,0.000
1587070389.300,-188.965,-696.777,-361.328,6.348,0.000
1587070389.304,-216.309,-1000.000,-651.855,8.301,0.000
1587070389.308,154.297,-515.625,29.297,15.137,0.000
1587070389.312,271.973,26.855,313.477,22.461,0.000
1587070389.316,-85.938,-476.562,-94.727,24.414,0.000
1587070389.319,-301.758,-1000.000,-503.418,6.348,0.000
1587070389.323,1.953,-817.383,-240.234,-7.324,0.000
1587070389.327,299.316,-135.742,238.770,25.879,0.000
1587070389.331,41.504,-427.246,-13.184,17.090,0.000
1587070389.335,-285.156,-1000.000,-455.078,15.625,0.000
1587070389.339,-85.938,-895.508,-326.660,18.555,0.000
1587070389.343,279.785,-351.562,107.422,0.488,0.000
1587070389.347,173.340,-500.000,-10.742,21.973,0.000
1587070389.351,-232.910,-1000.000,-508.301,13.184,0.000
1587070389.355,-203.125,-963.379,-463.379,3.906,0.000
1587070389.359,205.566,-515.625,13.672,23.926,0.000
1587070389.362,229.980,-621.582,-79.590,26.367,0.000
1587070389.366,-169.434,-1000.000,-440.430,22.461,0.000
1587070389.370,-250.977,-979.980,-393.066,39.062,0.000
1587070389.374,121.094,-751.465,-174.316,29.297,0.000
1587070389.378,285.645,-551.270,89.355,13.672,0.000
1587070389.382,-42.480,-773.926,-134.277,18.555,0.000
1587070389.386,-297.363,-994.141,-430.176,-10.742,0.000
1587070389.390,-28.809,-946.289,-363.770,6.836,0.000
1587070389.394,264.160,-683.594,-57.617,23.438,0.000
1587070389.398,53.711,-587.891,11.719,20.996,0.000
1587070389.402,-280.273,-885.254,-354.004,38.086,0.000
1587070389.405,-117.188,-1000.000,-545.410,25.879,0.000
1587070389.409,251.953,-760.254,-255.859,16.602,0.000
1587070389.413,144.043,-251.465,187.988,8.789,0.000
1587070389.417,-247.070,-668.945,-208.008,-5.371,0.000
1587070389.421,-231.445,-1000.000,-469.727,-12.207,0.000
1587070389.425,162.109,-499.512,15.625,1.953,0.000
1587070389.429,219.238,-6.348,297.363,31.738,0.000
1587070389.433,-145.996,-482.910,-108.398,45.410,0.000
1587070389.437,-263.672,-1000.000,-502.930,42.480,0.000
1587070389.441,106.934,-916.504,-281.250,26.855,0.000
1587070389.444,305.176,-365.723,180.176,35.156,0.000
1587070389.448,-49.316,-409.668,77.148,25.391,0.000
1587070389.452,-312.988,-1000.000,-544.434,7.324,0.000
1587070389.456,-53.711,-810.547,-311.523,20.996,0.000
1587070389.460,255.371,-84.473,284.180,42.969,0.000
1587070389.464,69.824,-289.062,108.398,40.527,0.000
1587070389.468,-291.504,-943.359,-323.242,41.992,0.000
1587070389.472,-153.320,-1000.000,-345.703,45.410,0.000
1587070389.476,229.980,-385.254,136.719,57.129,0.000
1587070389.480,163.086,-136.230,237.305,65.918,0.000
1587070389.484,-208.984,-805.176,-260.742,39.062,0.000
1587070389.487,-221.191,-1000.000,-455.078,22.461,0.000
1587070389.491,140.625,-501.465,67.871,45.898,0.000
1587070389.495,250.488,-177.246,199.219,66.895,0.000
1587070389.499,-94.238,-901.855,-326.660,54.199,0.000
1587070389.503,-265.625,-984.863,-318.359,30.273,0.000
1587070389.507,57.129,-409.180,113.281,21.484,0.000
1587070389.511,287.109,7.324,324.707,8.301,0.000
1587070389.515,8.301,-147.949,180.664,33.203,0.000
1587070389.519,-272.461,-599.609,-95.703,40.039,0.000
1587070389.523,-61.035,-743.652,-83.496,13.672,0.000
1587070389.527,262.207,-197.754,325.195,16.602,0.000
1587070389.530,113.281,69.824,290.039,38.574,0.000
1587070389.534,-262.695,-661.133,-217.773,23.438,0.000
1587070389.538,-184.082,-952.148,-286.133,0.000,0.000
1587070389.542,221.680,-825.195,-32.227,20.508,0.000
1587070389.546,204.102,-480.469,160.156,41.504,0.000
1587070389.550,-191.895,-260.254,159.180,38.574,0.000
1587070389.554,-235.840,-759.766,-160.645,26.855,0.000
1587070389.558,143.066,-470.703,86.914,4.883,0.000
1587070389.562,269.043,255.371,396.484,-2.930,0.000
1587070389.566,-74.707,-181.152,135.254,6.836,0.000
1587070389.569,-274.902,-1000.000,-323.730,20.020,0.000
1587070389.573,23.438,-700.684,-80.566,8.301,0.000
1587070389.577,298.340,71.289,340.820,-5.371,0.000
1587070389.581,45.898,-239.746,172.852,19.043,0.000
1587070389.585,-286.621,-941.895,-369.141,39.551,0.000
1587070389.589,-106.445,-901.855,-429.199,13.184,0.000
1587070389.593,242.676,-15.137,299.805,1.953,0.000
1587070389.597,138.184,166.504,256.348,30.273,0.000
1587070389.601,-228.516,-745.117,-290.527,37.598,0.000
1587070389.605,-188.965,-900.391,-237.793,15.625,0.000
1587070389.609,208.008,-144.043,242.188,13.184,0.000
1587070389.612,233.887,260.742,361.328,32.715,0.000
1587070389.616,-164.551,-493.652,-72.754,25.879,0.000
1587070389.620,-274.902,-952.637,-285.645,13.184,0.000
1587070389.624,87.891,-332.520,130.859,32.715,0.000
1587070389.628,273.926,-92.285,314.941,49.805,0.000
1587070389.632,-52.246,-660.156,-178.223,51.270,0.000
1587070389.636,-300.781,-1000.000,-511.230,47.852,0.000
1587070389.640,-15.625,-836.426,-184.570,13.184,0.000
1587070389.644,271.973,-378.906,161.133,22.949,0.000
1587070389.648,42.969,-475.098,42.969,41.992,0.000
1587070389.652,-302.246,-910.645,-298.340,19.531,0.000
1587070389.655,-145.996,-851.074,-265.625,-19.531,0.000
1587070389.659,233.398,-526.855,77.148,14.648,0.000
1587070389.663,137.695,-375.977,206.543,29.297,0.000
1587070389.667,-251.953,-718.262,-153.320,-9.766,0.000
1587070389.671,-267.578,-907.715,-330.566,-1.953,0.000
1587070389.675,131.836,-774.414,-92.773,31.738,0.000
1587070389.679,200.195,-718.262,75.195,31.738,0.000
1587070389.683,-189.941,-626.465,2.441,-0.488,0.000
1587070389.687,-297.852,-869.141,-308.594,-8.301,0.000
1587070389.691,36.133,-893.066,-192.871,-8.789,0.000
1587070389.694,222.656,-313.477,224.609,-5.859,0.000
1587070389.698,-60.547,-367.676,5.859,-4.395,0.000
1587070389.702,-328.613,-1000.000,-470.215,10.742,0.000
1587070389.706,-115.234,-964.844,-264.648,14.648,0.000
1587070389.710,226.562,-246.582,197.266,26.367,0.000
1587070389.714,45.410,-74.707,217.773,30.762,0.000
1587070389.718,-339.844,-762.695,-270.996,24.902,0.000
1587070389.722,-199.219,-1000.000,-444.824,12.207,0.000
1587070389.726,177.246,-531.738,29.297,-0.488,0.000
1587070389.730,142.578,19.531,329.102,17.090,0.000
1587070389.734,-232.422,-547.852,-151.855,16.602,0.000
1587070389.737,-288.086,-1000.000,-515.137,-3.906,0.000
1587070389.741,64.941,-535.156,7.812,-7.324,0.000
1587070389.745,167.480,32.715,368.652,26.367,0.000
1587070389.749,-158.691,-405.762,-55.176,32.715,0.000
1587070389.753,-313.477,-1000.000,-519.531,11.719,0.000
1587070389.757,7.812,-893.555,-203.613,13.672,0.000
1587070389.761,241.699,-212.891,274.902,30.762,0.000
1587070389.765,-37.109,-314.941,60.547,42.480,0.000
1587070389.769,-315.918,-1000.000,-475.098,22.949,0.000
1587070389.773,-112.793,-887.207,-236.816,-2.441,0.000
1587070389.777,201.660,-35.156,346.680,-11.230,0.000
1587070389.780,68.359,-185.547,75.684,8.301,0.000
1587070389.784,-299.316,-1000.000,-514.160,18.066,0.000
1587070389.788,-195.801,-915.527,-283.691,0.000,0.000
1587070389.792,175.293,-284.180,168.945,-0.977,0.000
1587070389.796,148.926,-174.805,260.742,23.438,0.000
1587070389.800,-204.102,-640.625,-57.617,6.836,0.000
1587070389.804,-275.879,-868.164,-309.570,-32.227,0.000
1587070389.808,83.496,-438.477,32.227,-10.254,0.000
1587070389.812,229.492,-177.246,293.457,20.508,0.000
1587070389.816,-102.051,-709.473,-95.703,37.109,0.000
1587070389.819,-304.688,-1000.000,-484.863,5.859,0.000
1587070389.823,17.578,-791.992,-165.527,-6.348,0.000
1587070389.827,252.930,-702.637,-9.766,22.461,0.000
1587070389.831,-38.086,-761.719,-68.359,28.320,0.000
1587070389.835,-312.500,-791.504,-187.012,9.766,0.000
1587070389.839,-134.766,-887.695,-263.672,1.465,0.000
1587070389.843,230.469,-347.168,177.734,20.020,0.000
1587070389.847,132.324,-264.160,176.270,41.992,0.000
1587070389.851,-284.668,-869.141,-276.855,38.574,0.000
1587070389.855,-211.426,-1000.000,-441.895,34.668,0.000
1587070389.859,165.039,-613.770,-33.203,48.340,0.000
1587070389.862,183.105,-206.055,241.699,33.691,0.000
1587070389.866,-187.500,-681.152,-81.055,4.395,0.000
1587070389.870,-271.973,-1000.000,-489.746,-2.930,0.000
1587070389.874,93.750,-894.531,-369.629,33.203,0.000
1587070389.878,242.188,-252.930,226.074,27.832,0.000
1587070389.882,-51.270,-180.176,175.293,-2.441,0.000
1587070389.886,-298.828,-848.145,-285.156,4.395,0.000
1587070389.890,-37.598,-683.594,-75.195,-4.883,0.000
1587070389.894,279.297,42.969,341.309,2.930,0.000
1587070389.898,49.805,-41.016,180.176,20.020,0.000
1587070389.902,-302.246,-816.406,-307.129,-0.977,0.000
1587070389.905,-130.371,-915.039,-291.016,13.672,0.000
1587070389.909,242.188,-428.223,142.578,26.855,0.000
1587070389.913,153.809,-348.145,233.398,-1.953,0.000
1587070389.917,-230.957,-812.012,-291.504,-11.719,0.000
1587070389.921,-223.145,-980.957,-467.285,-16.113,0.000
1587070389.925,170.410,-303.223,175.293,-6.836,0.000
1587070389.929,231.445,31.250,283.691,34.668,0.000
1587070389.933,-157.715,-699.219,-184.082,27.344,0.000
1587070389.937,-281.738,-1000.000,-407.227,7.324,0.000
1587070389.941,72.754,-645.996,-40.039,13.672,0.000
1587070389.944,293.945,-317.383,221.680,-0.488,0.000
1587070389.948,-3.906,-513.672,83.984,-0.977,0.000
1587070389.952,-288.574,-937.500,-281.738,6.348,0.000
1587070389.956,-44.922,-889.648,-262.695,1.953,0.000
1587070389.960,249.512,-591.797,75.195,-2.930,0.000
1587070389.964,70.801,-767.578,-119.629,1.465,0.000
1587070389.968,-279.785,-958.008,-362.305,24.902,0.000
1587070389.972,-162.598,-841.309,-228.516,20.508,0.000
1587070389.976,225.586,-435.547,118.164,-9.766,0.000
1587070389.980,189.941,-118.164,238.770,5.371,0.000
1587070389.984,-204.102,-466.309,-49.316,19.531,0.000
1587070389.987,-263.672,-864.258,-314.941,-0.977,0.000
1587070389.991,109.863,-700.195,-93.262,-18.555,0.000
1587070389.995,228.027,-288.086,225.098,-17.578,0.000
1587070389.999,-104.492,-386.719,13.672,-2.930,0.000
1587070390.003,-291.016,-997.559,-445.801,-6.836,0.000
1587070390.007,13.184,-936.523,-305.176,-16.602,0.000
1587070390.011,251.953,-244.629,167.969,-7.812,0.000
1587070390.015,-20.996,-136.719,193.848,-3.906,0.000
1587070390.019,-304.688,-787.109,-262.695,-16.113,0.000
1587070390.023,-104.492,-1000.000,-436.035,-7.324,0.000
1587070390.027,221.191,-394.043,99.121,-5.859,0.000
1587070390.030,67.871,22.949,314.941,-10.254,0.000
1587070390.034,-291.504,-725.098,-284.668,-15.137,0.000
1587070390.038,-206.543,-967.773,-378.906,-26.367,0.000
1587070390.042,172.852,-200.684,211.426,-38.086,0.000
1587070390.046,170.898,69.824,299.805,-27.832,0.000
1587070390.050,-213.379,-678.711,-319.336,-3.418,0.000
1587070390.054,-302.246,-1000.000,-625.977,-12.207,0.000
1587070390.058,82.520,-631.348,-15.625,-15.625,0.000
1587070390.062,239.746,62.988,360.840,1.953,0.000
1587070390.066,-118.164,-397.949,-54.688,15.137,0.000
1587070390.069,-312.988,-1000.000,-438.965,14.648,0.000
1587070390.073,-20.020,-656.250,-52.734,7.324,0.000
1587070390.077,247.070,53.223,335.938,10.742,0.000
1587070390.081,26.855,-238.281,83.496,31.250,0.000
1587070390.085,-320.801,-944.336,-338.379,8.301,0.000
1587070390.089,-165.039,-787.598,-211.426,-7.812,0.000
1587070390.093,204.590,-89.355,263.184,16.113,0.000
1587070390.097,115.234,-333.496,84.961,22.949,0.000
1587070390.101,-266.113,-1000.000,-385.254,17.578,0.000
1587070390.105,-224.609,-882.812,-250.000,1.953,0.000
1587070390.109,156.738,-273.438,181.641,-0.488,0.000
1587070390.112,181.152,-418.945,58.594,22.949,0.000
1587070390.116,-198.242,-859.863,-246.582,38.574,0.000
1587070390.120,-296.387,-875.488,-324.707,23.926,0.000
1587070390.124,68.359,-625.977,-39.062,7.812,0.000
1587070390.128,247.559,-386.719,247.070,0.488,0.000
1587070390.132,-68.848,-570.312,50.781,1.953,0.000
1587070390.136,-285.645,-872.559,-275.391,-5.859,0.000
1587070390.140,-21.484,-892.090,-253.906,-7.324,0.000
1587070390.144,249.512,-574.707,93.262,5.371,0.000
1587070390.148,50.781,-498.047,123.047,13.672,0.000
1587070390.152,-290.527,-778.320,-173.828,15.625,0.000
1587070390.155,-155.762,-1000.000,-435.547,9.277,0.000
1587070390.159,205.566,-739.258,-124.023,20.508,0.000
1587070390.163,141.113,-204.590,272.461,30.273,0.000
1587070390.167,-241.699,-701.660,-234.375,10.254,0.000
1587070390.171,-247.070,-1000.000,-417.480,-10.742,0.000
1587070390.175,135.742,-422.852,113.281,-10.742,0.000
1587070390.179,222.656,83.008,334.961,18.555,0.000
1587070390.183,-117.676,-359.863,55.176,31.250,0.000
1587070390.187,-280.762,-961.914,-328.613,1.953,0.000
1587070390.191,10.254,-830.566,-131.836,8.789,0.000
1587070390.194,233.887,-271.973,296.387,12.695,0.000
1587070390.198,-41.992,-304.688,131.836,23.926,0.000
1587070390.202,-326.660,-953.125,-479.980,40.039,0.000
1587070390.206,-89.844,-869.141,-329.590,1.953,0.000
1587070390.210,248.535,-65.430,293.945,-31.738,0.000
1587070390.214,65.918,-76.660,187.012,-15.625,0.000
1587070390.218,-307.129,-851.074,-271.484,4.395,0.000
1587070390.222,-213.867,-1000.000,-369.629,-5.859,0.000
1587070390.226,185.547,-409.180,86.914,-11.719,0.000
1587070390.230,165.527,-212.891,196.777,15.625,0.000
1587070390.234,-236.816,-840.820,-262.207,36.621,0.000
1587070390.237,-289.062,-1000.000,-435.059,4.395,0.000
1587070390.241,88.867,-654.297,-7.812,-11.719,0.000
1587070390.245,226.074,-433.594,149.414,10.742,0.000
1587070390.249,-125.000,-932.617,-311.523,15.137,0.000
1587070390.253,-312.500,-1000.000,-388.184,-3.418,0.000
1587070390.257,15.625,-541.992,-0.977,0.000,0.000
1587070390.261,252.930,-167.969,249.512,12.695,0.000
1587070390.265,-7.812,-296.875,164.062,7.324,0.000
1587070390.269,-326.660,-701.660,-138.184,3.418,0.000
1587070390.273,-112.305,-677.246,-118.164,-4.883,0.000
1587070390.277,247.559,-182.129,301.758,-11.719,0.000
1587070390.280,76.172,-125.488,216.797,-12.207,0.000
1587070390.284,-288.574,-750.000,-278.809,-0.977,0.000
1587070390.288,-215.332,-985.840,-381.348,2.441,0.000
1587070390.292,162.109,-912.109,-201.660,12.207,0.000
1587070390.296,177.246,-563.965,60.547,18.066,0.000
1587070390.300,-203.125,-347.656,123.535,-3.418,0.000
1587070390.304,-275.391,-916.504,-287.598,-11.719,0.000
1587070390.308,98.145,-675.293,-60.059,-12.695,0.000
1587070390.312,225.098,167.480,376.953,2.441,0.000
1587070390.316,-89.844,-253.418,21.973,18.066,0.000
1587070390.319,-313.965,-1000.000,-460.938,1.465,0.000
1587070390.323,-55.664,-786.621,-134.277,13.184,0.000
1587070390.327,245.117,-29.785,305.176,30.273,0.000
1587070390.331,12.207,-316.895,104.980,32.227,0.000
1587070390.335,-333.496,-1000.000,-473.145,26.855,0.000
1587070390.339,-145.020,-938.477,-508.789,10.254,0.000
1587070390.343,232.910,-236.328,184.570,-1.465,0.000
1587070390.347,109.863,-114.258,229.980,2.930,0.000
1587070390.351,-273.926,-828.613,-275.879,4.883,0.000
1587070390.355,-251.465,-949.219,-289.062,-1.465,0.000
1587070390.359,142.578,-254.883,180.664,-12.695,0.000
1587070390.362,194.336,124.023,294.922,-7.324,0.000
1587070390.366,-189.941,-564.453,-90.820,-23.438,0.000
1587070390.370,-312.012,-1000.000,-370.117,-37.109,0.000
1587070390.374,40.039,-534.180,-35.156,-36.621,0.000
1587070390.378,227.539,-192.383,286.621,-34.180,0.000
1587070390.382,-67.383,-665.527,-213.867,-17.090,0.000
1587070390.386,-312.988,-1000.000,-553.223,-26.855,0.000
1587070390.390,-74.219,-620.605,-11.719,-39.062,0.000
1587070390.394,232.910,-58.105,275.879,-51.758,0.000
1587070390.398,46.387,-271.973,150.391,-47.852,0.000
1587070390.402,-292.480,-807.129,-161.133,-44.434,0.000
1587070390.405,-167.480,-988.770,-335.938,-71.289,0.000
1587070390.409,188.965,-647.949,48.340,-76.172,0.000
1587070390.413,126.953,-294.922,277.832,-61.035,0.000
1587070390.417,-236.816,-550.293,-37.598,-33.691,0.000
1587070390.421,-241.211,-876.953,-325.684,-36.621,0.000
1587070390.425,120.605,-727.539,-67.383,-59.570,0.000
1587070390.429,215.820,-549.805,210.449,-37.109,0.000
1587070390.433,-135.742,-533.203,102.051,-29.785,0.000
1587070390.437,-296.387,-754.395,-208.008,-55.176,0.000
1587070390.441,36.621,-800.293,-124.023,-62.500,0.000
1587070390.444,247.070,-304.199,227.051,-45.898,0.000
1587070390.448,-15.625,-104.004,206.543,-31.250,0.000
1587070390.452,-296.387,-773.438,-238.770,-47.852,0.000
1587070390.456,-90.332,-959.961,-275.391,-48.340,0.000
1587070390.460,251.953,-218.750,209.473,-42.480,0.000
1587070390.464,73.242,-112.793,217.285,-32.715,0.000
1587070390.468,-296.387,-829.590,-254.395,-16.602,0.000
1587070390.472,-178.223,-1000.000,-399.902,-21.973,0.000
1587070390.476,208.984,-437.988,117.188,-21.484,0.000
1587070390.480,185.059,130.859,361.816,-13.184,0.000
1587070390.484,-216.309,-465.332,-78.613,-10.254,0.000
1587070390.487,-263.184,-1000.000,-387.695,-9.277,0.000
1587070390.491,115.234,-453.613,68.848,-20.508,0.000
1587070390.495,246.094,190.918,375.000,-40.527,0.000
1587070390.499,-98.633,-307.617,6.348,-20.996,0.000
1587070390.503,-297.852,-1000.000,-424.805,5.371,0.000
1587070390.507,17.090,-758.789,-90.332,-18.066,0.000
1587070390.511,277.832,55.176,368.652,-17.578,0.000
1587070390.515,14.160,-226.074,103.027,1.465,0.000
1587070390.519,-291.992,-1000.000,-420.410,-25.879,0.000
1587070390.523,-81.055,-963.867,-305.176,-36.621,0.000
1587070390.527,262.207,-185.059,277.832,-30.762,0.000
1587070390.530,143.555,-185.059,142.578,-8.789,0.000
1587070390.534,-234.375,-1000.000,-392.578,1.953,0.000
1587070390.538,-182.129,-962.402,-296.875,-22.949,0.000
1587070390.542,182.617,-172.852,255.371,-15.137,0.000
1587070390.546,183.105,-230.469,138.184,-6.348,0.000
1587070390.550,-181.641,-1000.000,-409.180,-21.973,0.000
1587070390.554,-286.133,-860.352,-248.047,-35.645,0.000
1587070390.558,66.895,-309.570,145.508,-39.062,0.000
1587070390.562,229.492,-5.859,344.727,-27.832,0.000
1587070390.566,-98.633,-537.598,15.625,-14.648,0.000
1587070390.569,-327.637,-1000.000,-354.980,-11.719,0.000
1587070390.573,-18.555,-543.945,6.348,-28.320,0.000
1587070390.577,264.160,-507.324,111.328,-54.199,0.000
1587070390.581,3.418,-852.539,-49.316,-43.945,0.000
1587070390.585,-318.848,-895.996,-245.605,-54.688,0.000
1587070390.589,-147.461,-952.148,-302.246,-76.660,0.000
1587070390.593,223.145,-308.105,227.051,-53.711,0.000
1587070390.597,130.371,-123.535,235.352,-39.551,0.000
1587070390.601,-241.211,-720.215,-193.359,-36.133,0.000
1587070390.605,-208.008,-923.828,-321.777,-54.199,0.000
1587070390.609,162.109,-460.938,40.527,-70.801,0.000
1587070390.612,212.402,-107.910,240.723,-54.199,0.000
1587070390.616,-159.668,-561.523,-43.945,-32.227,0.000
1587070390.620,-295.410,-999.512,-436.035,-46.875,0.000
1587070390.624,49.805,-814.453,-263.672,-48.340,0.000
1587070390.628,236.328,33.203,319.824,-29.297,0.000
1587070390.632,-47.852,46.875,222.656,-25.391,0.000
1587070390.636,-300.781,-756.348,-242.676,-26.855,0.000
1587070390.640,-70.801,-808.105,-144.043,-22.949,0.000
1587070390.644,246.582,-72.754,318.359,-11.719,0.000
1587070390.648,60.547,68.359,245.117,-3.906,0.000
1587070390.652,-295.898,-710.938,-226.074,2.930,0.000
1587070390.655,-182.617,-832.520,-214.355,-14.160,0.000
1587070390.659,196.777,-264.160,187.500,-15.137,0.000
1587070390.663,143.066,-184.570,249.023,-20.996,0.000
1587070390.667,-243.164,-775.391,-295.898,-34.668,0.000
1587070390.671,-264.648,-972.168,-463.379,-22.949,0.000
1587070390.675,113.281,-292.480,166.992,-15.625,0.000
1587070390.679,206.055,99.121,291.016,-6.836,0.000
1587070390.683,-144.043,-471.191,-61.523,-0.488,0.000
1587070390.687,-314.453,-895.508,-322.266,-15.625,0.000
1587070390.691,16.113,-654.785,-83.496,-36.621,0.000
1587070390.694,226.074,-263.672,229.492,-43.945,0.000
1587070390.698,-38.086,-510.254,61.523,-23.438,0.000
1587070390.702,-318.848,-971.680,-293.945,-12.695,0.000
1587070390.706,-127.441,-831.055,-230.957,-43.945,0.000
1587070390.710,217.285,-452.148,112.305,-43.945,0.000
1587070390.714,53.711,-667.480,-54.199,-22.461,0.000
1587070390.718,-291.992,-912.109,-320.801,-31.738,0.000
1587070390.722,-186.523,-714.355,-192.383,-40.039,0.000
1587070390.726,165.527,-312.012,146.973,-44.922,0.000
1587070390.730,146.973,5.371,257.812,-34.180,0.000
1587070390.734,-240.723,-351.562,-18.555,-31.738,0.000
1587070390.737,-322.266,-894.531,-334.961,-27.344,0.000
1587070390.741,58.105,-644.043,-57.129,-32.227,0.000
1587070390.745,210.938,11.230,326.660,-50.293,0.000
1587070390.749,-136.719,-207.031,73.730,-34.180,0.000
1587070390.753,-353.027,-907.715,-350.586,-29.785,0.000
1587070390.757,-46.875,-1000.000,-429.199,-37.109,0.000
1587070390.761,228.516,-577.637,-18.555,-26.855,0.000
1587070390.765,-13.184,-87.402,253.906,-14.160,0.000
1587070390.769,-339.844,-733.887,-245.605,-42.480,0.000
1587070390.773,-159.180,-875.000,-210.449,-66.406,0.000
1587070390.777,196.289,-68.848,282.715,-57.617,0.000
1587070390.780,100.098,156.250,306.641,-57.129,0.000
1587070390.784,-285.156,-656.250,-201.172,-56.641,0.000
1587070390.788,-253.418,-935.547,-340.820,-41.992,0.000
1587070390.792,159.180,-129.883,217.285,-39.062,0.000
1587070390.796,179.688,176.758,351.074,-61.523,0.000
1587070390.800,-209.961,-593.750,-237.793,-64.941,0.000
1587070390.804,-305.176,-1000.000,-609.375,-62.500,0.000
1587070390.808,68.359,-489.258,26.367,-75.684,0.000
1587070390.812,231.445,184.082,391.602,-70.312,0.000
1587070390.816,-108.398,-350.098,-46.387,-49.805,0.000
1587070390.819,-322.754,-1000.000,-441.895,-63.477,0.000
1587070390.823,-51.758,-627.441,-42.969,-74.219,0.000
1587070390.827,233.398,90.332,350.098,-68.359,0.000
1587070390.831,17.578,-189.941,92.285,-55.176,0.000
1587070390.835,-315.918,-925.293,-331.055,-66.895,0.000
1587070390.839,-147.461,-783.203,-174.316,-92.773,0.000
1587070390.843,214.844,-77.637,266.602,-94.727,0.000
1587070390.847,130.859,-308.105,87.891,-91.309,0.000
1587070390.851,-270.508,-1000.000,-352.051,-80.566,0.000
1587070390.855,-272.461,-948.242,-316.895,-76.660,0.000
1587070390.859,129.395,-353.516,132.324,-71.777,0.000
1587070390.862,202.637,-402.344,95.703,-51.270,0.000
1587070390.866,-166.504,-825.684,-198.730,-53.223,0.000
1587070390.870,-309.570,-844.238,-278.809,-62.500,0.000
1587070390.874,40.527,-676.270,-54.199,-68.848,0.000
1587070390.878,245.605,-423.340,237.305,-57.129,0.000
1587070390.882,-54.688,-627.930,-16.602,-46.387,0.000
1587070390.886,-297.852,-927.734,-317.383,-63.965,0.000
1587070390.890,-56.641,-879.395,-243.652,-76.172,0.000
1587070390.894,233.398,-604.980,38.086,-49.805,0.000
1587070390.898,49.316,-409.668,179.199,-11.719,0.000
1587070390.902,-285.645,-676.270,-68.848,-20.020,0.000
1587070390.905,-157.715,-1000.000,-406.738,-37.109,0.000
1587070390.909,212.402,-762.207,-149.902,-29.785,0.000
1587070390.913,159.180,-174.805,295.898,-34.180,0.000
1587070390.917,-224.609,-485.352,-37.598,-31.738,0.000
1587070390.921,-241.699,-974.121,-353.516,-44.922,0.000
1587070390.925,127.930,-488.770,53.711,-50.781,0.000
1587070390.929,227.539,132.324,361.816,-29.297,0.000
1587070390.933,-108.887,-303.711,21.484,-12.695,0.000
1587070390.937,-273.438,-978.027,-385.742,-1.953,0.000
1587070390.941,21.973,-871.582,-166.992,-1.465,0.000
1587070390.944,241.211,-198.730,275.879,3.906,0.000
1587070390.948,-21.484,-188.965,191.895,17.578,0.000
1587070390.952,-316.406,-935.059,-442.871,-5.371,0.000
1587070390.956,-89.844,-818.848,-273.438,-22.949,0.000
1587070390.960,263.184,31.250,363.281,-33.203,0.000
1587070390.964,87.891,-6.348,206.055,-33.203,0.000
1587070390.968,-288.574,-816.406,-263.184,-16.113,0.000
1587070390.972,-201.172,-1000.000,-377.441,-27.832,0.000
1587070390.976,188.477,-416.992,116.211,-35.645,0.000
1587070390.980,161.621,-59.570,270.020,-36.621,0.000
1587070390.984,-202.148,-721.191,-198.242,-23.438,0.000
1587070390.987,-257.324,-1000.000,-449.219,-37.598,0.000
1587070390.991,89.844,-582.520,23.438,-55.664,0.000
1587070390.995,229.492,-285.645,212.891,-36.133,0.000
1587070390.999,-118.652,-879.883,-261.230,-35.156,0.000
1587070391.003,-304.199,-994.629,-358.398,-61.523,0.000
1587070391.007,0.488,-528.809,-3.418,-68.848,0.000
1587070391.011,254.395,-204.102,243.164,-59.570,0.000
1587070391.015,11.719,-283.691,154.297,-33.203,0.000
1587070391.019,-306.641,-657.715,-152.344,-21.484,0.000
1587070391.023,-123.535,-718.750,-139.648,-31.738,0.000
1587070391.027,244.629,-250.488,293.945,-33.691,0.000
1587070391.030,119.141,-183.105,223.633,-30.273,0.000
1587070391.034,-282.227,-789.062,-291.016,-27.344,0.000
1587070391.038,-209.473,-964.355,-361.816,-36.133,0.000
1587070391.042,186.523,-902.344,-150.879,-40.039,0.000
1587070391.046,200.684,-548.828,119.141,-32.715,0.000
1587070391.050,-182.617,-469.727,-16.113,-20.020,0.000
1587070391.054,-298.828,-1000.000,-462.402,-19.531,0.000
1587070391.058,54.199,-679.199,-39.062,-29.297,0.000
1587070391.062,227.539,71.289,354.004,-22.461,0.000
1587070391.066,-83.984,-348.633,-8.789,-12.207,0.000
1587070391.069,-299.316,-1000.000,-485.352,-16.113,0.000
1587070391.073,-27.344,-770.508,-143.555,-12.695,0.000
1587070391.077,257.812,41.016,341.309,-7.324,0.000
1587070391.081,13.672,-171.387,187.012,-3.906,0.000
1587070391.085,-319.824,-929.688,-388.672,2.930,0.000
1587070391.089,-145.508,-1000.000,-533.203,-1.953,0.000
1587070391.093,220.215,-244.629,172.363,-19.531,0.000
1587070391.097,138.672,255.859,370.117,-4.395,0.000
1587070391.101,-238.281,-549.316,-139.648,1.953,0.000
1587070391.105,-221.680,-924.805,-276.855,-22.461,0.000
1587070391.109,150.391,-188.477,188.477,-25.391,0.000
1587070391.112,217.773,49.316,300.293,11.719,0.000
1587070391.116,-157.227,-648.926,-97.656,29.297,0.000
1587070391.120,-296.875,-1000.000,-356.445,1.953,0.000
1587070391.124,57.617,-463.867,18.555,-9.766,0.000
1587070391.128,248.047,-138.184,305.664,11.230,0.000
1587070391.132,-42.480,-647.949,-191.406,35.645,0.000
1587070391.136,-298.828,-1000.000,-566.406,33.203,0.000
1587070391.140,-54.199,-617.676,-38.574,35.156,0.000
1587070391.144,266.113,18.555,299.316,23.926,0.000
1587070391.148,76.660,-215.820,137.207,-0.977,0.000
1587070391.152,-282.227,-803.223,-209.473,9.766,0.000
1587070391.155,-165.039,-735.840,-227.051,15.625,0.000
1587070391.159,207.031,-405.273,131.348,12.695,0.000
1587070391.163,152.344,-262.695,251.465,31.250,0.000
1587070391.167,-232.910,-570.312,-88.867,29.297,0.000
1587070391.171,-253.906,-957.520,-389.648,0.000,0.000
1587070391.175,118.652,-806.641,-90.820,7.812,0.000
1587070391.179,230.469,-571.289,171.875,29.297,0.000
1587070391.183,-111.816,-520.020,100.098,28.320,0.000
1587070391.187,-290.039,-814.941,-236.816,7.324,0.000
1587070391.191,8.301,-850.098,-148.926,2.441,0.000
1587070391.194,242.188,-274.414,246.094,18.555,0.000
1587070391.198,-10.742,-99.121,202.637,35.645,0.000
1587070391.202,-296.387,-705.078,-207.031,31.250,0.000
1587070391.206,-84.961,-914.062,-274.414,14.160,0.000
1587070391.210,246.582,-232.422,190.430,-2.441,0.000
1587070391.214,90.820,141.602,314.453,3.906,0.000
1587070391.218,-262.207,-561.035,-133.789,2.441,0.000
1587070391.222,-182.617,-1000.000,-418.457,4.883,0.000
1587070391.226,188.477,-597.168,6.836,0.977,0.000
1587070391.230,183.105,-178.711,260.254,-9.277,0.000
1587070391.234,-204.590,-699.707,-212.402,-2.441,0.000
1587070391.237,-272.949,-1000.000,-485.840,-13.672,0.000
1587070391.241,98.145,-505.859,20.508,-2.930,0.000
1587070391.245,236.816,122.070,350.586,19.531,0.000
1587070391.249,-109.863,-320.312,14.648,11.719,0.000
1587070391.253,-313.477,-1000.000,-391.113,-21.484,0.000
1587070391.257,-17.578,-747.559,-90.820,-27.344,0.000
1587070391.261,244.629,101.074,377.441,-26.855,0.000
1587070391.265,14.648,-189.453,87.891,-20.996,0.000
1587070391.269,-297.363,-1000.000,-453.613,-28.320,0.000
1587070391.273,-114.258,-922.363,-308.105,-45.898,0.000
1587070391.277,238.281,-106.445,290.039,-58.105,0.000
1587070391.280,128.418,-176.758,121.582,-41.992,0.000
1587070391.284,-252.930,-987.793,-455.078,-38.574,0.000
1587070391.288,-226.562,-1000.000,-368.652,-48.340,0.000
1587070391.292,162.598,-456.055,83.496,-27.832,0.000
1587070391.296,206.543,-61.523,279.785,-20.020,0.000
1587070391.300,-179.688,-562.500,-9.277,-28.320,0.000
1587070391.304,-283.203,-925.293,-291.016,-29.297,0.000
1587070391.308,79.102,-569.824,-40.039,-35.156,0.000
1587070391.312,230.957,-164.062,337.402,-16.602,0.000
1587070391.316,-85.449,-649.902,-47.363,-3.418,0.000
1587070391.319,-311.035,-1000.000,-450.195,-31.738,0.000
1587070391.323,-45.898,-681.641,-48.828,-43.945,0.000
1587070391.327,247.559,-667.969,19.043,-21.484,0.000
1587070391.331,26.855,-793.457,-81.543,-9.766,0.000
1587070391.335,-311.035,-770.020,-113.770,-10.254,0.000
1587070391.339,-156.250,-923.828,-277.832,-21.973,0.000
1587070391.343,199.707,-407.227,108.887,-19.531,0.000
1587070391.347,121.094,-218.262,195.312,-8.789,0.000
1587070391.351,-240.723,-793.457,-243.652,-17.578,0.000
1587070391.355,-252.930,-1000.000,-450.684,-24.902,0.000
1587070391.359,103.027,-646.484,-33.203,-21.484,0.000
1587070391.362,200.195,-254.883,196.777,18.555,0.000
1587070391.366,-141.602,-686.523,-116.211,22.949,0.000
1587070391.370,-330.078,-1000.000,-483.398,-42.969,0.000
1587070391.374,13.672,-857.910,-351.074,-52.734,0.000
1587070391.378,239.258,-88.867,266.602,-18.555,0.000
1587070391.382,-93.750,-113.770,164.551,-10.254,0.000
1587070391.386,-353.027,-899.414,-342.285,-31.738,0.000
1587070391.390,-104.980,-762.695,-127.441,-53.711,0.000
1587070391.394,199.219,-5.371,339.844,-47.363,0.000
1587070391.398,20.996,-14.648,212.891,-37.109,0.000
1587070391.402,-335.449,-774.902,-276.855,-46.387,0.000
1587070391.405,-216.309,-1000.000,-367.188,-43.457,0.000
1587070391.409,172.852,-476.074,115.234,-27.832,0.000
1587070391.413,138.672,-269.531,268.066,-35.645,0.000
1587070391.417,-235.840,-812.988,-363.281,-54.199,0.000
1587070391.421,-278.320,-976.562,-495.605,-68.359,0.000
1587070391.425,90.820,-301.758,179.199,-65.918,0.000
1587070391.429,198.730,98.145,300.781,-69.824,0.000
1587070391.433,-149.902,-543.457,-80.078,-73.242,0.000
1587070391.437,-319.336,-941.895,-327.637,-54.688,0.000
1587070391.441,-15.137,-663.086,-44.922,-49.805,0.000
1587070391.444,242.188,-303.223,243.164,-63.477,0.000
1587070391.448,-24.902,-356.934,172.363,-68.848,0.000
1587070391.452,-325.195,-812.988,-208.496,-69.336,0.000
1587070391.456,-95.215,-907.715,-280.273,-50.293,0.000
1587070391.460,195.801,-543.945,79.102,-18.555,0.000
1587070391.464,62.012,-790.527,-153.809,-42.969,0.000
1587070391.468,-277.832,-1000.000,-398.438,-55.176,0.000
1587070391.472,-230.957,-801.758,-205.078,-38.086,0.000
1587070391.476,156.250,-392.090,104.980,-44.434,0.000
1587070391.480,165.039,-80.566,245.117,-28.320,0.000
1587070391.484,-208.008,-391.602,-18.066,-19.531,0.000
1587070391.487,-275.391,-827.637,-287.109,-20.508,0.000
1587070391.491,98.633,-596.191,-6.348,-10.742,0.000
1587070391.495,230.957,-9.277,309.082,1.465,0.000
1587070391.499,-102.539,-217.773,82.520,-10.742,0.000
1587070391.503,-293.457,-925.293,-335.449,-7.324,0.000
1587070391.507,-24.902,-1000.000,-416.504,-6.348,0.000
1587070391.511,240.723,-557.129,-18.555,-39.551,0.000
1587070391.515,7.324,-83.496,249.023,-27.344,0.000
1587070391.519,-291.992,-681.152,-201.172,8.301,0.000
1587070391.523,-114.258,-956.055,-290.527,7.812,0.000
1587070391.527,215.820,-317.383,180.176,8.301,0.000
1587070391.530,116.211,59.570,316.406,26.367,0.000
1587070391.534,-265.625,-648.438,-206.543,23.438,0.000
1587070391.538,-225.098,-978.516,-407.227,7.812,0.000
1587070391.542,168.945,-277.832,152.344,-5.859,0.000
1587070391.546,200.195,111.328,362.793,-4.395,0.000
1587070391.550,-172.363,-572.754,-190.430,7.812,0.000
1587070391.554,-274.902,-1000.000,-556.152,-2.930,0.000
1587070391.558,77.148,-470.703,69.336,0.977,0.000
1587070391.562,256.348,199.219,397.461,5.859,0.000
1587070391.566,-40.527,-311.523,-27.832,2.930,0.000
1587070391.569,-309.082,-1000.000,-411.621,13.672,0.000
1587070391.573,-55.664,-630.859,-46.387,0.977,0.000
1587070391.577,254.395,94.238,359.375,18.066,0.000
1587070391.581,30.762,-246.094,57.129,26.855,0.000
1587070391.585,-305.176,-1000.000,-412.598,-1.953,0.000
1587070391.589,-145.996,-791.016,-202.637,2.930,0.000
1587070391.593,212.402,-92.773,242.676,3.906,0.000
1587070391.597,134.277,-200.684,172.852,18.555,0.000
1587070391.601,-245.605,-915.039,-266.113,37.109,0.000
1587070391.605,-234.863,-943.359,-317.383,22.949,0.000
1587070391.609,143.555,-310.547,156.250,14.160,0.000
1587070391.612,216.309,-454.102,26.855,22.461,0.000
1587070391.616,-151.367,-979.004,-380.371,28.320,0.000
1587070391.620,-308.105,-932.617,-339.844,6.836,0.000
1587070391.624,29.297,-624.512,-11.230,-5.371,0.000
1587070391.628,230.957,-338.379,234.375,2.441,0.000
1587070391.632,-51.270,-441.406,94.238,11.230,0.000
1587070391.636,-310.059,-758.789,-214.844,21.484,0.000
1587070391.640,-83.496,-885.254,-288.574,3.418,0.000
1587070391.644,229.980,-524.414,80.566,-12.695,0.000
1587070391.648,50.781,-513.672,123.535,0.977,0.000
1587070391.652,-308.105,-917.969,-288.574,-21.973,0.000
1587070391.655,-194.824,-1000.000,-474.121,-38.574,0.000
1587070391.659,188.965,-794.434,-194.824,-19.531,0.000
1587070391.663,171.875,-118.164,273.926,-3.418,0.000
1587070391.667,-210.938,-372.559,-7.324,-8.301,0.000
1587070391.671,-267.578,-974.609,-345.215,-20.508,0.000
1587070391.675,119.629,-454.590,99.121,-18.555,0.000
1587070391.679,235.840,188.477,370.605,-0.488,0.000
1587070391.683,-124.512,-232.910,108.398,15.137,0.000
1587070391.687,-323.730,-922.363,-308.594,6.836,0.000
1587070391.691,-0.488,-871.582,-217.773,-24.414,0.000
1587070391.694,250.488,-272.949,250.488,-19.531,0.000
1587070391.698,-17.090,-266.602,180.176,-12.207,0.000
1587070391.702,-286.621,-943.359,-458.496,-23.926,0.000
1587070391.706,-104.492,-830.566,-271.973,-14.160,0.000
1587070391.710,236.328,53.711,374.512,-21.484,0.000
1587070391.714,113.770,45.410,202.637,-4.883,0.000
1587070391.718,-286.621,-798.340,-285.645,-7.324,0.000
1587070391.722,-214.844,-1000.000,-411.621,-24.414,0.000
1587070391.726,176.270,-415.527,71.289,-19.531,0.000
1587070391.730,183.105,14.648,279.785,-21.973,0.000
1587070391.734,-196.777,-638.672,-175.293,-32.227,0.000
1587070391.737,-284.668,-1000.000,-416.016,-30.762,0.000
1587070391.741,57.129,-664.551,-10.254,-25.879,0.000
1587070391.745,231.445,-356.934,182.129,3.418,0.000
1587070391.749,-96.680,-833.984,-250.000,-13.184,0.000
1587070391.753,-325.195,-1000.000,-362.793,-52.734,0.000
1587070391.757,-44.922,-560.547,-15.137,-38.086,0.000
1587070391.761,233.887,-197.266,238.770,-21.973,0.000
1587070391.765,32.715,-270.996,144.043,-19.043,0.000
1587070391.769,-295.410,-716.797,-209.961,-12.695,0.000
1587070391.773,-145.020,-761.230,-183.105,-11.719,0.000
1587070391.777,233.398,-283.691,267.578,-14.648,0.000
1587070391.780,124.512,-106.934,257.324,-16.602,0.000
1587070391.784,-266.602,-679.688,-222.168,-14.648,0.000
1587070391.788,-219.727,-974.121,-369.141,-14.160,0.000
1587070391.792,138.672,-891.602,-188.965,-18.555,0.000
1587070391.796,161.621,-620.605,32.227,2.930,0.000
1587070391.800,-197.266,-398.438,108.398,-0.488,0.000
1587070391.804,-289.551,-895.996,-278.809,-37.598,0.000
1587070391.808,42.480,-705.078,-50.781,-37.109,0.000
1587070391.812,216.309,44.434,363.281,-15.137,0.000
1587070391.816,-82.520,-306.641,20.508,-5.859,0.000
1587070391.819,-319.824,-1000.000,-487.793,-16.113,0.000
1587070391.823,-41.992,-781.250,-164.551,-22.461,0.000
1587070391.827,236.816,-15.625,314.941,-13.184,0.000
1587070391.831,27.832,-244.629,184.570,14.160,0.000
1587070391.835,-289.062,-948.730,-379.883,24.902,0.000
1587070391.839,-151.855,-982.422,-513.672,8.301,0.000
1587070391.843,181.641,-265.137,172.363,-14.160,0.000
1587070391.847,109.863,166.504,336.426,-12.207,0.000
1587070391.851,-249.023,-579.590,-166.016,0.977,0.000
1587070391.855,-252.441,-1000.000,-390.625,-7.812,0.000
1587070391.859,149.902,-372.070,116.699,-16.602,0.000
1587070391.862,238.770,146.484,358.398,4.883,0.000
1587070391.866,-157.715,-508.301,-80.078,14.160,0.000
1587070391.870,-318.359,-1000.000,-385.742,-12.207,0.000
1587070391.874,34.180,-656.738,-52.734,-5.371,0.000
1587070391.878,257.324,-298.828,282.715,15.137,0.000
1587070391.882,-35.645,-632.812,-167.969,25.391,0.000
1587070391.886,-316.895,-1000.000,-584.473,-10.742,0.000
1587070391.890,-62.988,-696.777,-37.598,-47.852,0.000
1587070391.894,270.508,-59.570,292.969,-36.621,0.000
1587070391.898,95.215,-226.074,175.781,-28.809,0.000
1587070391.902,-264.160,-801.270,-143.555,-20.020,0.000
1587070391.905,-185.059,-805.176,-211.914,-24.414,0.000
1587070391.909,191.406,-395.996,176.758,-56.641,0.000
1587070391.913,168.457,-318.848,211.426,-55.176,0.000
1587070391.917,-230.469,-631.836,-68.848,-40.039,0.000
1587070391.921,-273.926,-877.930,-274.414,-54.199,0.000
1587070391.925,96.191,-745.117,-63.965,-54.199,0.000
1587070391.929,246.094,-747.070,81.543,-38.086,0.000
1587070391.933,-79.102,-730.469,11.719,-34.180,0.000
1587070391.937,-339.844,-911.133,-293.945,-31.738,0.000
1587070391.941,-27.832,-973.145,-258.789,-30.762,0.000
1587070391.944,253.906,-257.324,219.238,-19.531,0.000
1587070391.948,-5.371,-25.879,249.023,-14.648,0.000
1587070391.952,-320.312,-726.074,-180.176,-31.738,0.000
1587070391.956,-128.418,-981.445,-285.156,-45.410,0.000
1587070391.960,229.980,-287.109,180.176,-45.898,0.000
1587070391.964,117.676,81.543,322.754,-23.926,0.000
1587070391.968,-267.090,-583.008,-120.605,-24.414,0.000
1587070391.972,-221.680,-1000.000,-458.496,-57.617,0.000
1587070391.976,162.109,-574.707,5.859,-71.289,0.000
1587070391.980,164.062,85.449,373.535,-63.477,0.000
1587070391.984,-211.914,-414.062,-42.969,-73.242,0.000
1587070391.987,-300.781,-1000.000,-477.539,-88.867,0.000
1587070391.991,77.637,-566.406,-20.508,-82.520,0.000
1587070391.995,259.277,0.977,339.844,-72.266,0.000
1587070391.999,-95.703,-465.820,1.465,-67.871,0.000
1587070392.003,-355.469,-1000.000,-395.020,-72.266,0.000
1587070392.007,-38.574,-772.461,-102.539,-77.637,0.000
1587070392.011,249.512,31.250,361.328,-82.031,0.000
1587070392.015,-4.883,-181.641,125.977,-66.406,0.000
1587070392.019,-328.613,-993.652,-393.066,-41.504,0.000
1587070392.023,-139.160,-899.414,-279.297,-74.219,0.000
1587070392.027,212.402,-70.801,295.898,-104.004,0.000
1587070392.030,94.727,-165.527,126.465,-70.312,0.000
1587070392.034,-274.902,-1000.000,-420.410,-42.969,0.000
1587070392.038,-226.562,-925.781,-267.090,-46.387,0.000
1587070392.042,149.414,-270.508,189.941,-44.922,0.000
1587070392.046,203.613,-137.695,233.398,-34.180,0.000
1587070392.050,-160.645,-644.531,-52.246,-17.090,0.000
1587070392.054,-311.523,-1000.000,-346.191,-25.391,0.000
1587070392.058,60.547,-669.922,-80.078,-35.645,0.000
1587070392.062,270.020,-214.355,296.875,-25.879,0.000
1587070392.066,-61.523,-684.570,-57.129,-20.508,0.000
1587070392.069,-333.008,-1000.000,-450.195,-30.273,0.000
1587070392.073,-73.242,-691.406,-77.148,-46.387,0.000
1587070392.077,247.559,-630.371,56.152,-41.016,0.000
1587070392.081,43.945,-778.809,-82.031,-20.020,0.000
1587070392.085,-294.434,-736.328,-163.086,-20.996,0.000
1587070392.089,-165.039,-909.668,-268.066,-10.254,0.000
1587070392.093,193.359,-414.062,151.855,-21.973,0.000
1587070392.097,139.648,-142.090,255.859,-35.645,0.000
1587070392.101,-238.770,-678.711,-137.695,-12.207,0.000
1587070392.105,-246.094,-1000.000,-377.441,-25.879,0.000
1587070392.109,111.328,-651.855,-75.195,-25.879,0.000
1587070392.112,183.105,-236.816,228.516,-1.465,0.000
1587070392.116,-150.879,-624.512,-54.688,-9.766,0.000
1587070392.120,-312.500,-1000.000,-527.344,-7.812,0.000
1587070392.124,13.184,-868.164,-337.402,-12.207,0.000
1587070392.128,254.883,-115.234,256.348,-7.324,0.000
1587070392.132,-25.391,-60.547,198.242,19.531,0.000
1587070392.136,-326.172,-814.453,-260.742,5.371,0.000
1587070392.140,-96.191,-754.395,-96.680,4.883,0.000
1587070392.144,246.582,60.547,354.492,18.066,0.000
1587070392.148,75.195,110.352,238.281,21.973,0.000
1587070392.152,-281.738,-728.027,-240.234,20.020,0.000
1587070392.155,-185.547,-896.973,-264.160,13.184,0.000
1587070392.159,178.223,-360.352,154.785,10.254,0.000
1587070392.163,159.668,-272.949,268.066,-0.488,0.000
1587070392.167,-213.867,-740.723,-262.695,3.418,0.000
1587070392.171,-280.762,-1000.000,-568.848,7.324,0.000
1587070392.175,99.121,-507.812,69.336,-13.184,0.000
1587070392.179,238.281,104.980,307.617,-18.066,0.000
1587070392.183,-129.883,-395.508,-32.227,-17.090,0.000
1587070392.187,-322.266,-911.621,-315.430,-19.531,0.000
1587070392.191,-0.488,-756.348,-178.223,-20.020,0.000
1587070392.194,263.672,-296.387,198.730,-4.395,0.000
1587070392.198,21.484,-361.816,169.922,6.348,0.000
1587070392.202,-308.594,-788.574,-209.961,-8.789,0.000
1587070392.206,-130.859,-855.957,-265.625,-13.184,0.000
1587070392.210,215.820,-561.035,94.238,-14.160,0.000
1587070392.214,75.684,-711.426,-18.066,-13.184,0.000
1587070392.218,-300.293,-939.941,-310.547,3.906,0.000
1587070392.222,-233.398,-801.758,-224.121,-8.301,0.000
1587070392.226,166.504,-438.477,101.562,-18.555,0.000
1587070392.230,204.102,-232.910,206.055,-2.441,0.000
1587070392.234,-174.316,-568.848,-58.105,4.395,0.000
1587070392.237,-294.922,-872.070,-309.082,-5.371,0.000
1587070392.241,67.871,-612.305,2.930,-13.672,0.000
1587070392.245,236.328,-26.367,326.660,-10.254,0.000
1587070392.249,-94.238,-216.309,102.539,-3.418,0.000
1587070392.253,-332.031,-892.090,-287.109,-0.488,0.000
1587070392.257,-48.828,-1000.000,-425.781,6.348,0.000
1587070392.261,263.184,-547.852,-12.207,6.348,0.000
1587070392.265,26.855,5.371,269.043,1.953,0.000
1587070392.269,-314.453,-654.785,-210.938,-3.906,0.000
1587070392.273,-151.367,-1000.000,-323.730,-23.438,0.000
1587070392.277,229.980,-291.992,172.852,-37.598,0.000
1587070392.280,147.949,128.906,322.754,-38.086,0.000
1587070392.284,-273.926,-604.980,-180.664,-38.086,0.000
1587070392.288,-255.859,-1000.000,-431.641,-29.785,0.000
1587070392.292,161.621,-430.176,91.309,-37.109,0.000
1587070392.296,234.375,139.160,351.562,-24.414,0.000
1587070392.300,-165.527,-501.465,-178.223,-27.832,0.000
1587070392.304,-321.289,-1000.000,-512.695,-42.480,0.000
1587070392.308,40.039,-514.160,-5.859,-39.062,0.000
1587070392.312,274.902,186.523,416.016,-31.738,0.000
1587070392.316,-61.523,-252.930,-33.203,-33.691,0.000
1587070392.319,-355.469,-1000.000,-573.242,-49.805,0.000
1587070392.323,-75.684,-679.688,-66.406,-49.316,0.000
1587070392.327,260.254,68.848,339.355,-40.039,0.000
1587070392.331,82.520,-166.992,158.203,-17.578,0.000
1587070392.335,-302.734,-857.910,-237.305,-30.762,0.000
1587070392.339,-185.059,-751.953,-209.961,-50.781,0.000
1587070392.343,210.938,-98.633,239.746,-42.969,0.000
1587070392.347,158.691,-296.387,99.609,-21.484,0.000
1587070392.351,-232.422,-975.098,-376.465,0.488,0.000
1587070392.355,-257.324,-950.684,-366.211,-7.324,0.000
1587070392.359,139.160,-337.891,125.488,-11.719,0.000
1587070392.362,244.141,-372.559,105.469,1.465,0.000
1587070392.366,-122.070,-882.812,-256.836,7.324,0.000
1587070392.370,-298.340,-916.016,-340.820,-12.207,0.000
1587070392.374,26.367,-638.184,-56.641,-29.297,0.000
1587070392.378,261.230,-319.824,222.168,-24.414,0.000
1587070392.382,-7.324,-447.266,107.910,-5.371,0.000
1587070392.386,-312.988,-815.918,-205.078,-6.836,0.000
1587070392.390,-73.730,-878.906,-258.301,-20.020,0.000
1587070392.394,265.137,-544.434,61.035,-12.207,0.000
1587070392.398,91.309,-343.750,184.570,0.000,0.000
1587070392.402,-276.855,-656.250,-87.891,3.906,0.000
1587070392.405,-205.078,-1000.000,-457.031,-20.020,0.000
1587070392.409,197.266,-740.723,-151.367,-27.832,0.000
1587070392.413,198.242,-83.984,318.359,-28.320,0.000
1587070392.417,-197.754,-408.203,-9.766,-42.969,0.000
1587070392.421,-267.578,-962.891,-339.844,-46.875,0.000
1587070392.425,121.582,-529.297,29.297,-46.387,0.000
1587070392.429,258.789,137.207,350.586,-38.086,0.000
1587070392.433,-91.797,-194.336,117.188,-22.461,0.000
1587070392.437,-282.715,-903.809,-321.777,-21.973,0.000
1587070392.441,-12.695,-933.594,-284.668,-38.574,0.000
1587070392.444,238.281,-299.805,218.262,-14.648,0.000
1587070392.448,-2.441,-198.730,194.824,-8.301,0.000
1587070392.452,-320.312,-899.902,-474.609,-47.852,0.000
1587070392.456,-125.000,-892.090,-383.789,-40.039,0.000
1587070392.460,214.844,-55.176,293.457,-27.344,0.000
1587070392.464,99.121,1.465,206.055,-7.324,0.000
1587070392.468,-267.090,-795.410,-265.625,3.906,0.000
1587070392.472,-218.262,-1000.000,-396.484,-10.742,0.000
1587070392.476,180.176,-443.359,81.055,2.930,0.000
1587070392.480,191.406,-31.738,284.668,22.949,0.000
1587070392.484,-185.059,-707.520,-207.031,4.883,0.000
1587070392.487,-254.395,-1000.000,-442.871,-20.996,0.000
1587070392.491,97.656,-679.199,-11.719,-21.973,0.000
1587070392.495,274.414,-291.504,209.961,-2.441,0.000
1587070392.499,-73.730,-755.859,-216.309,-8.301,0.000
1587070392.503,-321.777,-995.605,-353.027,-15.137,0.000
1587070392.507,-20.508,-510.254,19.043,-2.930,0.000
1587070392.511,264.160,-116.699,235.352,3.418,0.000
1587070392.515,38.574,-210.449,147.949,-0.488,0.000
1587070392.519,-306.641,-630.859,-138.672,0.000,0.000
1587070392.523,-145.996,-763.184,-253.418,3.418,0.000
1587070392.527,234.375,-378.418,162.598,-9.766,0.000
1587070392.530,150.879,-177.246,241.211,-17.090,0.000
1587070392.534,-236.328,-708.984,-260.742,-6.348,0.000
1587070392.538,-214.355,-983.887,-387.695,-10.254,0.000
1587070392.542,183.594,-935.059,-265.625,-9.766,0.000
1587070392.546,231.445,-611.328,-33.203,-1.465,0.000
1587070392.550,-144.531,-304.688,140.625,-9.766,0.000
1587070392.554,-292.969,-826.660,-267.090,-20.996,0.000
1587070392.558,54.688,-701.172,-82.520,-33.691,0.000
1587070392.562,265.137,50.293,360.352,-5.371,0.000
1587070392.566,-40.039,-272.949,26.855,0.000,0.000
1587070392.569,-306.152,-1000.000,-472.168,-37.109,0.000
1587070392.573,-64.453,-754.395,-137.207,-42.480,0.000
1587070392.577,278.320,83.984,344.727,-14.160,0.000
1587070392.581,91.797,-201.172,161.621,-1.953,0.000
1587070392.585,-273.926,-954.590,-401.855,-12.695,0.000
1587070392.589,-153.320,-984.375,-489.258,3.906,0.000
1587070392.593,208.984,-245.605,170.410,7.812,0.000
1587070392.597,157.715,257.324,359.863,7.324,0.000
1587070392.601,-238.770,-503.906,-153.320,16.602,0.000
1587070392.605,-264.648,-961.426,-337.402,-12.695,0.000
1587070392.609,126.465,-289.551,177.734,-20.020,0.000
1587070392.612,223.633,247.070,363.281,4.883,0.000
1587070392.616,-142.578,-412.598,-53.223,15.137,0.000
1587070392.620,-324.707,-1000.000,-405.273,-5.371,0.000
1587070392.624,18.555,-608.887,-45.898,7.324,0.000
1587070392.628,268.066,-129.395,330.078,13.672,0.000
1587070392.632,-9.277,-567.871,-161.621,9.277,0.000
1587070392.636,-323.730,-1000.000,-576.172,5.371,0.000
1587070392.640,-102.539,-699.219,-75.684,0.977,0.000
1587070392.644,249.512,-205.078,233.887,12.207,0.000
1587070392.648,83.984,-286.133,181.152,9.766,0.000
1587070392.652,-278.809,-722.168,-120.117,-0.977,0.000
1587070392.655,-196.777,-810.059,-257.324,-0.488,0.000
1587070392.659,204.590,-528.809,91.797,6.836,0.000
1587070392.663,212.402,-251.953,250.977,26.367,0.000
1587070392.667,-199.707,-417.969,14.160,33.203,0.000
1587070392.671,-289.062,-768.555,-250.000,-7.324,0.000
1587070392.675,74.219,-608.398,-15.137,-28.809,0.000
1587070392.679,238.281,-708.984,85.938,-35.645,0.000
1587070392.683,-101.074,-688.477,25.391,-37.109,0.000
1587070392.687,-323.730,-702.148,-173.340,-25.879,0.000
1587070392.691,-0.488,-753.418,-142.578,-16.602,0.000
1587070392.694,250.000,-241.211,245.605,0.977,0.000
1587070392.698,-6.836,-181.641,177.246,18.555,0.000
1587070392.702,-295.410,-831.543,-304.688,11.719,0.000
1587070392.706,-117.188,-1000.000,-352.539,3.418,0.000
1587070392.710,219.727,-313.477,160.645,2.930,0.000
1587070392.714,115.234,48.828,296.875,15.625,0.000
1587070392.718,-248.535,-603.516,-158.691,23.438,0.000
1587070392.722,-217.285,-1000.000,-461.914,19.531,0.000
1587070392.726,178.223,-625.000,5.371,12.207,0.000
1587070392.730,229.004,23.438,358.398,0.977,0.000
1587070392.734,-175.293,-370.605,-29.785,12.207,0.000
1587070392.737,-282.227,-1000.000,-500.000,7.324,0.000
1587070392.741,85.449,-638.672,-76.660,-13.672,0.000
1587070392.745,242.188,120.117,372.559,-8.789,0.000
1587070392.749,-82.520,-227.539,64.453,-15.625,0.000
1587070392.753,-327.148,-1000.000,-415.039,-32.227,0.000
1587070392.757,-35.156,-782.227,-140.625,-37.598,0.000
1587070392.761,287.109,-74.219,329.590,-36.133,0.000
1587070392.765,46.387,-352.051,87.402,-37.109,0.000
1587070392.769,-312.988,-1000.000,-422.363,-32.227,0.000
1587070392.773,-139.648,-908.203,-284.668,-43.457,0.000
1587070392.777,249.023,-113.281,288.574,-41.992,0.000
1587070392.780,161.133,-157.227,131.836,-25.879,0.000
1587070392.784,-249.023,-970.703,-396.973,-16.602,0.000
1587070392.788,-245.605,-919.922,-276.367,-29.785,0.000
1587070392.792,159.668,-220.703,193.359,-20.020,0.000
1587070392.796,238.770,-8.301,256.836,3.418,0.000
1587070392.800,-147.461,-486.816,32.715,-31.250,0.000
1587070392.804,-292.480,-805.664,-211.426,-61.035,0.000
1587070392.808,64.941,-449.219,-9.766,-50.781,0.000
1587070392.812,292.969,-61.035,344.727,-31.738,0.000
1587070392.816,-24.414,-576.660,-9.277,-24.902,0.000
1587070392.819,-333.008,-1000.000,-451.172,-35.645,0.000
1587070392.823,-88.379,-790.039,-190.430,-33.691,0.000
1587070392.827,255.859,-695.312,21.484,-25.879,0.000
1587070392.831,79.102,-768.066,3.906,-38.086,0.000
1587070392.835,-277.344,-725.098,-107.422,-25.879,0.000
1587070392.839,-160.645,-919.434,-285.156,-30.273,0.000
1587070392.843,213.867,-395.508,138.672,-29.297,0.000
1587070392.847,170.898,-140.137,253.418,-25.391,0.000
1587070392.851,-206.543,-663.574,-98.633,-26.367,0.000
1587070392.855,-247.070,-1000.000,-345.703,-30.762,0.000
1587070392.859,130.371,-641.602,-53.223,-24.414,0.000
1587070392.862,261.230,-158.691,229.492,-0.977,0.000
1587070392.866,-111.328,-469.727,63.965,-0.977,0.000
1587070392.870,-312.012,-939.941,-370.117,-20.996,0.000
1587070392.874,3.418,-887.695,-359.375,-33.203,0.000
1587070392.878,258.301,-183.105,223.145,-22.461,0.000
1587070392.882,9.766,-149.902,193.848,-20.020,0.000
1587070392.886,-295.898,-831.543,-250.000,-25.391,0.000
1587070392.890,-91.797,-782.227,-132.812,-16.602,0.000
1587070392.894,250.000,4.883,314.453,-12.207,0.000
1587070392.898,99.609,82.520,230.957,-25.391,0.000
1587070392.902,-272.461,-687.500,-200.684,-17.090,0.000
1587070392.905,-208.984,-914.551,-282.227,-36.133,0.000
1587070392.909,184.082,-417.969,134.277,-48.828,0.000
1587070392.913,188.477,-244.141,267.090,-23.438,0.000
1587070392.917,-193.359,-749.512,-291.504,-16.113,0.000
1587070392.921,-259.766,-1000.000,-532.227,-50.293,0.000
1587070392.925,95.703,-339.355,142.578,-60.547,0.000
1587070392.929,245.117,225.098,359.863,-24.414,0.000
1587070392.933,-70.312,-310.547,-4.395,-21.973,0.000
1587070392.937,-295.410,-945.312,-342.285,-51.758,0.000
1587070392.941,-20.508,-782.227,-159.668,-69.336,0.000
1587070392.944,270.020,-228.516,227.051,-52.734,0.000
1587070392.948,21.484,-270.996,189.453,-36.133,0.000
1587070392.952,-262.207,-774.414,-184.570,-44.434,0.000
1587070392.956,-58.105,-891.602,-244.141,-49.805,0.000
1587070392.960,228.516,-471.191,122.070,-55.176,0.000
1587070392.964,128.418,-629.395,21.484,-52.246,0.000
1587070392.968,-239.258,-873.047,-257.324,-45.410,0.000
1587070392.972,-212.402,-716.309,-219.727,-49.805,0.000
1587070392.976,186.035,-425.293,87.891,-38.574,0.000
1587070392.980,231.934,11.719,277.344,-25.391,0.000
1587070392.984,-166.504,-187.012,116.699,-43.457,0.000
1587070392.987,-269.531,-716.309,-183.594,-51.758,0.000
1587070392.991,110.352,-609.375,-95.215,-44.922,0.000
1587070392.995,291.992,-154.297,218.262,-34.180,0.000
1587070392.999,-31.738,-402.344,48.340,-23.438,0.000
1587070393.003,-296.387,-937.012,-318.848,-27.344,0.000
1587070393.007,-10.742,-1000.000,-426.758,-37.109,0.000
1587070393.011,295.410,-599.609,-53.223,-54.688,0.000
1587070393.015,66.406,-40.527,294.922,-39.062,0.000
1587070393.019,-287.109,-644.043,-150.879,-46.875,0.000
1587070393.023,-141.602,-927.246,-298.340,-53.711,0.000
1587070393.027,235.840,-154.785,221.191,-33.203,0.000
1587070393.030,162.109,150.879,317.383,-37.598,0.000
1587070393.034,-208.008,-650.879,-209.961,-40.527,0.000
1587070393.038,-221.191,-988.281,-371.094,-44.922,0.000
1587070393.042,148.438,-232.910,179.199,-39.062,0.000
1587070393.046,245.605,165.527,350.586,-25.391,0.000
1587070393.050,-135.742,-532.227,-146.973,-9.766,0.000
1587070393.054,-311.035,-1000.000,-592.285,-36.133,0.000
1587070393.058,28.320,-691.895,-76.660,-56.641,0.000
1587070393.062,257.324,195.801,404.785,-39.062,0.000
1587070393.066,-28.809,-136.719,82.031,-28.320,0.000
1587070393.069,-285.645,-995.605,-357.422,-25.879,0.000
1587070393.073,-56.152,-716.309,-109.863,-26.855,0.000
1587070393.077,232.910,51.758,326.172,-24.902,0.000
1587070393.081,78.125,-98.633,183.105,-3.906,0.000
1587070393.085,-291.992,-849.609,-259.277,-11.230,0.000
1587070393.089,-187.012,-841.309,-257.812,-32.715,0.000
1587070393.093,224.121,-216.309,193.848,-19.043,0.000
1587070393.097,181.152,-319.336,88.379,-13.184,0.000
1587070393.101,-234.863,-964.355,-325.195,-8.301,0.000
1587070393.105,-253.418,-965.820,-326.172,-22.461,0.000
1587070393.109,134.277,-375.488,110.352,-57.129,0.000
1587070393.112,225.586,-418.457,105.469,-53.711,0.000
1587070393.116,-126.953,-996.582,-349.609,-58.105,0.000
1587070393.120,-312.988,-962.402,-388.184,-62.988,0.000
1587070393.124,-7.324,-571.289,-10.254,-62.500,0.000
1587070393.128,250.488,-204.102,257.812,-78.125,0.000
1587070393.132,0.000,-266.113,158.691,-74.707,0.000
1587070393.136,-326.172,-702.148,-197.754,-74.707,0.000
1587070393.140,-104.492,-786.621,-203.125,-83.984,0.000
1587070393.144,229.004,-420.898,155.273,-82.031,0.000
1587070393.148,72.266,-248.535,228.027,-68.359,0.000
1587070393.152,-298.340,-558.105,-42.480,-77.148,0.000
1587070393.155,-232.910,-952.148,-362.305,-86.426,0.000
1587070393.159,162.109,-906.738,-245.605,-66.895,0.000
1587070393.163,168.457,-206.055,208.008,-71.777,0.000
1587070393.167,-214.844,-247.559,117.188,-77.148,0.000
1587070393.171,-280.273,-946.289,-320.801,-70.801,0.000
1587070393.175,65.918,-738.770,-82.031,-93.750,0.000
1587070393.179,221.191,19.043,334.961,-80.078,0.000
1587070393.183,-95.215,-187.012,115.234,-73.242,0.000
1587070393.187,-355.957,-919.922,-333.984,-86.914,0.000
1587070393.191,-37.598,-853.516,-197.266,-70.312,0.000
1587070393.194,274.414,-211.914,252.930,-64.941,0.000
1587070393.198,5.371,-109.375,223.145,-84.961,0.000
1587070393.202,-343.262,-813.965,-419.434,-82.520,0.000
1587070393.206,-150.391,-881.836,-392.090,-87.402,0.000
1587070393.210,231.934,-58.105,303.711,-100.098,0.000
1587070393.214,110.840,87.891,250.488,-79.590,0.000
1587070393.218,-272.461,-671.387,-187.500,-70.312,0.000
1587070393.222,-240.723,-1000.000,-368.164,-69.336,0.000
1587070393.226,147.461,-489.258,57.129,-57.617,0.000
1587070393.230,208.496,-29.297,290.527,-58.105,0.000
1587070393.234,-181.641,-685.547,-185.059,-51.270,0.000
1587070393.237,-304.199,-1000.000,-469.727,-57.617,0.000
1587070393.241,36.133,-619.629,3.418,-72.266,0.000
1587070393.245,245.117,-91.797,264.648,-48.828,0.000
1587070393.249,-68.848,-710.449,-216.797,-45.898,0.000
1587070393.253,-336.914,-1000.000,-369.141,-57.129,0.000
1587070393.257,-69.824,-570.312,-7.812,-53.223,0.000
1587070393.261,235.352,-125.000,236.816,-35.156,0.000
1587070393.265,53.711,-152.832,169.922,-7.812,0.000
1587070393.269,-317.871,-644.531,-138.672,-30.273,0.000
1587070393.273,-183.105,-787.598,-225.586,-18.555,0.000
1587070393.277,217.773,-274.902,209.473,-9.277,0.000
1587070393.280,159.180,-83.984,255.371,-55.664,0.000
1587070393.284,-254.883,-678.711,-255.859,-62.012,0.000
1587070393.288,-279.297,-1000.000,-428.223,-62.500,0.000
1587070393.292,101.074,-985.352,-297.363,-73.730,0.000
1587070393.296,198.730,-646.484,-22.461,-70.312,0.000
1587070393.300,-146.484,-359.375,113.770,-55.664,0.000
1587070393.304,-339.355,-903.320,-314.941,-69.336,0.000
1587070393.308,22.461,-769.531,-85.449,-84.473,0.000
1587070393.312,277.832,62.012,369.629,-78.125,0.000
1587070393.316,-34.668,-221.680,53.711,-73.242,0.000
1587070393.319,-328.613,-1000.000,-454.102,-82.520,0.000
1587070393.323,-89.355,-778.809,-144.043,-80.566,0.000
1587070393.327,269.043,-21.484,324.707,-8.789,0.000
1587070393.331,105.469,-194.824,177.734,17.090,0.000
1587070393.335,-273.926,-884.277,-367.188,-32.227,0.000
1587070393.339,-163.086,-1000.000,-506.836,-23.926,0.000
1587070393.343,209.473,-275.391,154.297,-17.090,0.000
1587070393.347,175.781,234.863,373.047,-23.438,0.000
1587070393.351,-213.867,-520.508,-152.344,-6.836,0.000
1587070393.355,-285.156,-1000.000,-388.184,-17.578,0.000
1587070393.359,105.957,-369.141,125.977,-47.363,0.000
1587070393.362,251.465,185.059,365.234,-57.617,0.000
1587070393.366,-119.141,-437.988,-59.570,-49.805,0.000
1587070393.370,-333.984,-1000.000,-392.578,-64.941,0.000
1587070393.374,-1.953,-587.891,-27.344,-59.082,0.000
1587070393.378,256.348,-157.715,317.383,-37.109,0.000
1587070393.382,6.836,-577.148,-142.090,-11.230,0.000
1587070393.386,-317.871,-1000.000,-583.008,11.230,0.000
1587070393.390,-139.160,-729.980,-100.098,-18.066,0.000
1587070393.394,236.328,-64.941,275.391,-19.531,0.000
1587070393.398,108.398,-127.441,205.078,-7.812,0.000
1587070393.402,-273.926,-657.227,-88.379,-8.789,0.000
1587070393.405,-192.383,-771.484,-239.258,-19.531,0.000
1587070393.409,203.613,-393.555,122.070,-27.832,0.000
1587070393.413,199.707,-310.059,225.098,-7.324,0.000
1587070393.417,-180.664,-712.402,-132.812,-7.324,0.000
1587070393.421,-250.488,-889.160,-332.031,-33.203,0.000
1587070393.425,92.773,-773.926,-109.863,-29.297,0.000
1587070393.429,217.285,-529.785,203.125,-32.715,0.000
1587070393.433,-85.449,-430.176,138.184,-37.598,0.000
1587070393.437,-295.898,-735.840,-204.590,-30.273,0.000
1587070393.441,-27.832,-920.410,-299.805,-53.711,0.000
1587070393.444,264.648,-571.777,9.277,-54.688,0.000
1587070393.448,57.129,-176.758,213.379,-30.762,0.000
1587070393.452,-304.199,-645.508,-179.688,-21.973,0.000
1587070393.456,-159.668,-996.094,-327.637,-32.715,0.000
1587070393.460,215.820,-337.402,157.227,-29.297,0.000
1587070393.464,107.422,84.961,278.809,-15.137,0.000
1587070393.468,-274.902,-619.141,-217.285,-35.645,0.000
1587070393.472,-251.953,-1000.000,-516.113,-35.156,0.000
1587070393.476,140.137,-746.094,-106.445,-15.625,0.000
1587070393.480,214.844,-48.340,327.148,-24.902,0.000
1587070393.484,-169.434,-427.734,-82.031,-42.480,0.000
1587070393.487,-290.527,-1000.000,-562.012,-31.250,0.000
1587070393.491,59.082,-663.086,-105.469,-25.391,0.000
1587070393.495,242.676,61.523,349.609,-58.105,0.000
1587070393.499,-55.664,-240.234,76.172,-38.574,0.000
1587070393.503,-315.430,-994.629,-425.781,-13.184,0.000
1587070393.507,-57.129,-853.027,-228.516,-26.855,0.000
1587070393.511,261.230,-57.129,312.988,-38.086,0.000
1587070393.515,60.059,-126.465,156.738,-19.531,0.000
1587070393.519,-296.875,-960.449,-412.109,-10.254,0.000
1587070393.523,-158.691,-928.711,-353.027,-31.738,0.000
1587070393.527,206.543,-262.207,219.727,-3.418,0.000
1587070393.530,150.391,-336.426,122.559,13.672,0.000
1587070393.534,-222.168,-957.520,-362.793,-6.836,0.000
1587070393.538,-256.348,-1000.000,-395.020,-4.883,0.000
1587070393.542,108.398,-463.867,66.895,-10.254,0.000
1587070393.546,212.402,-305.664,135.254,5.371,0.000
1587070393.550,-129.883,-937.988,-339.844,17.578,0.000
1587070393.554,-289.062,-1000.000,-379.883,6.836,0.000
1587070393.558,27.832,-559.082,1.953,-5.371,0.000
1587070393.562,239.258,-200.684,281.250,3.418,0.000
1587070393.566,-53.711,-650.391,9.766,20.020,0.000
1587070393.569,-322.266,-1000.000,-354.492,-29.297,0.000
1587070393.573,-89.844,-693.359,-88.867,-71.289,0.000
1587070393.577,243.652,-653.320,62.500,-44.922,0.000
1587070393.581,88.379,-794.434,-42.969,-21.484,0.000
1587070393.585,-275.879,-778.809,-208.984,-21.484,0.000
1587070393.589,-187.012,-999.512,-368.652,-36.621,0.000
1587070393.593,197.266,-481.934,118.652,-47.363,0.000
1587070393.597,175.293,-190.430,256.836,-30.762,0.000
1587070393.601,-217.773,-678.711,-133.789,-45.898,0.000
1587070393.605,-286.133,-1000.000,-426.270,-106.934,0.000
1587070393.609,103.516,-665.039,-51.758,-110.840,0.000
1587070393.612,232.910,-148.926,291.504,-97.656,0.000
1587070393.616,-97.656,-528.320,29.297,-94.727,0.000
1587070393.620,-312.012,-984.863,-431.152,-85.938,0.000
1587070393.624,-33.691,-915.527,-395.020,-94.238,0.000
1587070393.628,260.742,-107.910,234.863,-98.145,0.000
1587070393.632,9.277,45.410,241.211,-74.219,0.000
1587070393.636,-326.660,-797.363,-298.828,-67.383,0.000
1587070393.640,-129.395,-803.711,-183.594,-55.664,0.000
1587070393.644,228.516,-155.762,258.301,-45.410,0.000
1587070393.648,118.652,-72.266,217.773,-32.715,0.000
1587070393.652,-250.977,-674.316,-140.137,-34.668,0.000
1587070393.655,-206.055,-913.574,-270.020,-51.758,0.000
1587070393.659,187.012,-409.180,115.234,-65.430,0.000
1587070393.663,200.195,-240.723,273.438,-70.312,0.000
1587070393.667,-191.406,-724.609,-297.363,-72.754,0.000
1587070393.671,-291.016,-1000.000,-574.707,-80.566,0.000
1587070393.675,77.637,-400.391,120.117,-64.941,0.000
1587070393.679,255.859,160.645,344.727,-31.738,0.000
1587070393.683,-91.309,-404.297,-30.762,-18.066,0.000
1587070393.687,-333.496,-954.102,-342.285,-19.043,0.000
1587070393.691,-43.945,-835.449,-210.938,-32.227,0.000
1587070393.694,267.578,-369.141,176.758,-53.711,0.000
1587070393.698,24.414,-375.488,149.414,-43.457,0.000
1587070393.702,-320.801,-884.277,-306.641,-31.738,0.000
1587070393.706,-140.137,-970.215,-374.512,-30.273,0.000
1587070393.710,205.078,-618.164,46.387,-33.203,0.000
1587070393.714,130.859,-684.570,39.062,-16.602,0.000
1587070393.718,-243.652,-895.508,-277.832,-14.648,0.000
1587070393.722,-263.672,-790.039,-254.883,-30.762,0.000
1587070393.726,126.465,-421.875,103.027,-28.320,0.000
1587070393.730,201.660,-50.781,266.113,-17.578,0.000
1587070393.734,-176.758,-285.645,68.848,-20.020,0.000
1587070393.737,-293.457,-852.051,-294.922,-32.715,0.000
1587070393.741,55.176,-806.641,-197.266,-55.176,0.000
1587070393.745,233.887,-100.098,266.113,-57.617,0.000
1587070393.749,-67.383,-153.320,130.371,-33.691,0.000
1587070393.753,-305.176,-905.762,-354.980,-19.043,0.000
1587070393.757,-53.711,-1000.000,-450.684,-20.508,0.000
1587070393.761,236.328,-656.738,-100.098,-27.344,0.000
1587070393.765,50.781,-259.277,240.234,-40.039,0.000
1587070393.769,-314.941,-710.938,-155.762,-45.410,0.000
1587070393.773,-187.012,-946.289,-360.352,-37.109,0.000
1587070393.777,201.660,-168.457,192.383,-31.250,0.000
1587070393.780,146.973,197.266,347.656,-25.879,0.000
1587070393.784,-246.582,-590.820,-172.852,-40.527,0.000
1587070393.788,-278.320,-1000.000,-419.434,-61.035,0.000
1587070393.792,109.863,-322.266,128.418,-49.316,0.000
1587070393.796,192.871,107.422,325.195,-32.227,0.000
1587070393.800,-176.270,-623.535,-210.449,-21.484,0.000
1587070393.804,-329.102,-1000.000,-480.957,-33.691,0.000
1587070393.808,-8.301,-585.449,-6.348,-71.289,0.000
1587070393.812,239.258,132.324,388.672,-43.457,0.000
1587070393.816,-24.902,-224.121,29.297,-15.137,0.000
1587070393.819,-316.895,-1000.000,-561.523,-34.180,0.000
1587070393.823,-94.238,-858.398,-262.695,-46.387,0.000
1587070393.827,249.512,-21.484,291.504,-31.738,0.000
1587070393.831,82.031,-85.449,165.527,-21.484,0.000
1587070393.835,-282.715,-834.961,-272.461,-22.461,0.000
1587070393.839,-196.289,-846.680,-268.066,-38.086,0.000
1587070393.843,206.055,-139.160,220.215,-38.086,0.000
1587070393.847,175.781,-283.203,106.934,-0.488,0.000
1587070393.851,-242.676,-1000.000,-356.934,-0.488,0.000
1587070393.855,-287.598,-946.777,-308.594,-25.391,0.000
1587070393.859,97.168,-403.809,67.383,-23.926,0.000
1587070393.862,252.930,-273.438,195.801,-20.020,0.000
1587070393.866,-84.961,-614.258,28.809,-11.719,0.000
1587070393.870,-321.289,-856.934,-251.953,-38.574,0.000
1587070393.874,-24.902,-677.734,-103.516,-51.758,0.000
1587070393.878,262.207,-304.199,243.164,-4.883,0.000
1587070393.882,9.277,-529.785,61.523,8.789,0.000
1587070393.886,-311.035,-942.383,-291.016,-20.020,0.000
1587070393.890,-108.398,-912.109,-297.363,-30.762,0.000
1587070393.894,242.676,-590.332,25.879,-28.809,0.000
1587070393.898,118.652,-323.730,219.727,-23.926,0.000
1587070393.902,-259.277,-601.074,-54.199,-12.207,0.000
1587070393.905,-235.352,-1000.000,-455.078,-17.578,0.000
1587070393.909,159.180,-708.496,-132.812,-43.945,0.000
1587070393.913,216.309,29.297,343.750,-23.926,0.000
1587070393.917,-162.598,-327.148,-9.766,-2.930,0.000
1587070393.921,-289.062,-966.309,-377.441,-17.578,0.000
1587070393.925,69.336,-586.426,-18.066,-29.297,0.000
1587070393.929,266.113,146.484,353.027,-26.367,0.000
1587070393.933,-65.918,-134.277,128.906,-16.113,0.000
1587070393.937,-321.289,-916.016,-337.891,-16.602,0.000
1587070393.941,-42.480,-883.301,-232.910,-17.578,0.000
1587070393.944,271.973,-309.082,211.426,-21.484,0.000
1587070393.948,36.133,-404.785,145.020,-31.250,0.000
1587070393.952,-319.824,-963.379,-464.355,-20.020,0.000
1587070393.956,-154.785,-890.137,-443.848,-36.621,0.000
1587070393.960,223.145,-127.930,256.348,-71.777,0.000
1587070393.964,146.973,-41.992,242.188,-65.918,0.000
1587070393.968,-237.793,-752.441,-217.285,-69.824,0.000
1587070393.972,-254.883,-1000.000,-424.805,-105.957,0.000
1587070393.976,115.234,-526.855,31.250,-105.469,0.000
1587070393.980,191.406,40.527,321.777,-70.312,0.000
1587070393.984,-168.457,-534.668,-109.863,-66.895,0.000
1587070393.987,-324.219,-1000.000,-479.492,-66.895,0.000
1587070393.991,-15.625,-647.949,-43.457,-80.566,0.000
1587070393.995,175.293,-177.246,253.418,-97.656,0.000
1587070393.999,-128.906,-768.066,-255.859,-117.188,0.000
1587070394.003,-423.340,-1000.000,-433.105,-139.648,0.000
1587070394.007,-204.102,-656.738,-58.594,-151.367,0.000
1587070394.011,110.352,-176.758,216.309,-142.090,0.000
1587070394.015,-73.242,-208.496,131.348,-146.484,0.000
1587070394.019,-451.172,-672.852,-203.125,-171.387,0.000
1587070394.023,-362.305,-814.941,-271.484,-181.641,0.000
1587070394.027,8.301,-386.719,168.457,-182.617,0.000
1587070394.030,-21.973,-128.418,246.582,-172.363,0.000
1587070394.034,-402.832,-663.086,-235.840,-169.434,0.000
1587070394.038,-470.703,-997.559,-384.277,-180.664,0.000
1587070394.042,-76.172,-954.590,-269.043,-174.805,0.000
1587070394.046,67.383,-660.156,-54.199,-156.738,0.000
1587070394.050,-282.715,-357.422,126.953,-153.809,0.000
1587070394.054,-447.754,-893.555,-297.852,-153.809,0.000
1587070394.058,-145.020,-914.062,-248.047,-158.203,0.000
1587070394.062,93.262,-80.078,269.531,-138.184,0.000
1587070394.066,-144.531,-186.035,95.215,-104.004,0.000
1587070394.069,-447.754,-1000.000,-449.219,-119.629,0.000
1587070394.073,-246.094,-873.047,-280.273,-134.277,0.000
1587070394.077,126.953,-112.305,236.816,-122.559,0.000
1587070394.081,18.555,-219.727,183.594,-110.352,0.000
1587070394.085,-354.492,-937.500,-378.906,-92.773,0.000
1587070394.089,-276.367,-1000.000,-488.281,-73.730,0.000
1587070394.093,146.973,-366.699,127.441,-62.500,0.000
1587070394.097,165.527,171.875,355.469,-65.430,0.000
1587070394.101,-231.445,-469.238,-129.883,-46.875,0.000
1587070394.105,-310.059,-996.094,-397.949,-43.457,0.000
1587070394.109,83.984,-373.535,113.281,-40.527,0.000
1587070394.112,256.348,179.688,361.816,-13.672,0.000
1587070394.116,-83.008,-440.430,-53.711,-9.277,0.000
1587070394.120,-295.898,-1000.000,-385.742,-8.789,0.000
1587070394.124,11.230,-621.094,-60.059,1.465,0.000
1587070394.128,292.480,-140.625,314.453,16.113,0.000
1587070394.132,67.383,-540.527,-114.746,30.762,0.000
1587070394.136,-266.113,-1000.000,-558.594,29.785,0.000
1587070394.140,-100.098,-768.066,-174.316,17.578,0.000
1587070394.144,278.809,-141.113,202.148,26.855,0.000
1587070394.148,171.387,-169.434,213.379,30.762,0.000
1587070394.152,-206.055,-759.766,-149.902,14.160,0.000
1587070394.155,-173.828,-906.738,-335.449,-0.488,0.000
1587070394.159,208.984,-532.715,42.969,8.301,0.000
1587070394.163,251.465,-217.285,259.766,42.480,0.000
1587070394.167,-105.957,-436.523,2.441,32.227,0.000
1587070394.171,-232.422,-895.996,-334.473,0.000,0.000
1587070394.175,103.516,-781.250,-134.277,17.578,0.000
1587070394.179,293.457,-676.270,159.180,32.227,0.000
1587070394.183,-16.602,-835.449,-40.527,38.086,0.000
1587070394.187,-261.230,-868.652,-292.480,26.367,0.000
1587070394.191,-0.977,-894.531,-224.121,19.043,0.000
1587070394.194,302.734,-402.832,138.672,39.062,0.000
1587070394.198,92.773,20.020,282.227,46.387,0.000
1587070394.202,-241.211,-572.266,-120.605,33.203,0.000
1587070394.206,-103.516,-947.266,-291.992,30.273,0.000
1587070394.210,266.113,-385.742,128.418,50.293,0.000
1587070394.214,204.590,70.312,306.152,48.828,0.000
1587070394.218,-187.012,-496.094,-98.145,40.039,0.000
1587070394.222,-201.660,-1000.000,-458.008,53.711,0.000
1587070394.226,179.688,-642.578,-39.551,53.711,0.000
1587070394.230,282.227,1.953,338.867,34.180,0.000
1587070394.234,-83.496,-482.910,-101.074,23.438,0.000
1587070394.237,-259.766,-1000.000,-558.105,22.461,0.000
1587070394.241,72.754,-634.277,-101.074,17.578,0.000
1587070394.245,305.176,119.141,369.141,36.621,0.000
1587070394.249,22.461,-187.988,93.750,54.199,0.000
1587070394.253,-260.742,-988.281,-392.090,49.805,0.000
1587070394.257,-44.434,-882.812,-247.070,48.828,0.000
1587070394.261,290.039,-47.363,289.062,41.504,0.000
1587070394.265,114.746,-55.176,207.031,57.617,0.000
1587070394.269,-264.160,-919.922,-366.699,57.617,0.000
1587070394.273,-153.320,-955.566,-336.426,43.457,0.000
1587070394.277,243.164,-136.719,270.020,34.668,0.000
1587070394.280,219.727,-63.477,201.660,49.805,0.000
1587070394.284,-175.781,-922.852,-349.609,45.410,0.000
1587070394.288,-222.168,-1000.000,-374.023,29.785,0.000
1587070394.292,134.766,-502.441,22.949,25.879,0.000
1587070394.296,255.859,-236.816,218.750,29.785,0.000
1587070394.300,-85.449,-510.254,28.809,30.762,0.000
1587070394.304,-292.969,-883.301,-255.371,31.250,0.000
1587070394.308,23.926,-584.961,-48.828,25.391,0.000
1587070394.312,289.062,-174.316,299.316,17.578,0.000
1587070394.316,15.625,-544.922,73.242,45.898,0.000
1587070394.319,-296.875,-1000.000,-340.332,31.738,0.000
1587070394.323,-89.355,-694.824,-146.484,23.926,0.000
1587070394.327,257.812,-609.375,55.664,53.711,0.000
1587070394.331,132.324,-804.199,-8.301,57.129,0.000
1587070394.335,-255.371,-712.891,-102.539,47.852,0.000
1587070394.339,-197.266,-964.844,-352.539,34.668,0.000
1587070394.343,200.195,-486.816,89.355,22.461,0.000
1587070394.347,211.914,-145.508,268.555,23.926,0.000
1587070394.351,-182.129,-742.188,-216.797,28.809,0.000
1587070394.355,-267.090,-1000.000,-451.660,21.973,0.000
1587070394.359,110.840,-719.238,-81.055,27.344,0.000
1587070394.362,272.461,-258.301,243.164,45.898,0.000
1587070394.366,-78.613,-476.562,86.426,29.785,0.000
1587070394.370,-322.266,-931.152,-345.703,6.836,0.000
1587070394.374,-20.996,-960.449,-390.625,18.555,0.000
1587070394.378,280.273,-121.094,239.258,34.180,0.000
1587070394.382,60.059,83.984,250.488,42.480,0.000
1587070394.386,-290.039,-822.266,-357.422,26.855,0.000
1587070394.390,-127.930,-885.742,-269.043,7.324,0.000
1587070394.394,240.723,-89.355,284.668,18.555,0.000
1587070394.398,146.484,173.340,294.922,35.645,0.000
1587070394.402,-247.559,-600.098,-184.082,34.668,0.000
1587070394.405,-206.543,-994.629,-348.633,22.461,0.000
1587070394.409,186.035,-514.648,83.496,23.438,0.000
1587070394.413,218.262,-236.816,302.246,20.508,0.000
1587070394.417,-147.949,-688.477,-256.836,12.695,0.000
1587070394.421,-295.410,-1000.000,-584.961,-11.719,0.000
1587070394.425,61.035,-474.121,46.387,-23.926,0.000
1587070394.429,269.043,55.176,315.918,4.883,0.000
1587070394.433,-38.086,-329.102,29.785,15.137,0.000
1587070394.437,-278.809,-862.305,-298.828,15.625,0.000
1587070394.441,-48.828,-814.941,-215.332,9.766,0.000
1587070394.444,251.953,-400.879,130.371,17.578,0.000
1587070394.448,62.988,-350.098,185.547,30.273,0.000
1587070394.452,-275.391,-777.344,-178.223,10.742,0.000
1587070394.456,-146.973,-988.770,-384.766,-8.301,0.000
1587070394.460,211.426,-567.383,57.617,19.043,0.000
1587070394.464,175.781,-611.816,73.730,34.180,0.000
1587070394.468,-218.750,-965.820,-313.965,6.348,0.000
1587070394.472,-253.418,-906.738,-315.430,-5.371,0.000
1587070394.476,126.953,-543.457,51.758,-8.789,0.000
1587070394.480,226.562,-38.086,274.902,-4.883,0.000
1587070394.484,-129.883,-233.398,98.633,-2.441,0.000
1587070394.487,-291.992,-865.234,-288.086,-4.395,0.000
1587070394.491,48.828,-804.199,-136.230,4.395,0.000
1587070394.495,265.625,-100.098,292.969,-1.465,0.000
1587070394.499,-32.227,-138.184,147.461,-20.020,0.000
1587070394.503,-311.523,-886.230,-321.289,-31.250,0.000
1587070394.507,-83.984,-1000.000,-502.930,-31.250,0.000
1587070394.511,230.469,-627.441,-101.562,-28.320,0.000
1587070394.515,81.055,-44.922,291.504,-14.160,0.000
1587070394.519,-283.203,-603.516,-128.906,-7.324,0.000
1587070394.523,-177.246,-908.203,-301.758,-30.762,0.000
1587070394.527,226.562,-267.090,160.645,-34.668,0.000
1587070394.530,200.195,-50.781,282.227,-38.574,0.000
1587070394.534,-211.914,-672.852,-160.645,-38.574,0.000
1587070394.538,-282.227,-1000.000,-392.578,-41.992,0.000
1587070394.542,108.887,-384.277,93.262,-47.363,0.000
1587070394.546,235.840,106.445,349.121,-26.367,0.000
1587070394.550,-102.539,-499.023,-121.582,-25.879,0.000
1587070394.554,-319.824,-1000.000,-567.871,-44.922,0.000
1587070394.558,-15.625,-561.035,-40.039,-61.523,0.000
1587070394.562,271.973,249.023,404.297,-47.363,0.000
1587070394.566,-2.930,-145.508,81.543,-39.551,0.000
1587070394.569,-332.520,-1000.000,-357.422,-48.340,0.000
1587070394.573,-106.934,-752.441,-101.074,-30.273,0.000
1587070394.577,250.977,45.898,345.215,-22.949,0.000
1587070394.581,108.887,-34.180,193.848,-27.832,0.000
1587070394.585,-274.414,-842.285,-280.762,-34.180,0.000
1587070394.589,-219.727,-1000.000,-373.047,-55.176,0.000
1587070394.593,186.035,-284.180,157.715,-47.363,0.000
1587070394.597,207.031,-312.500,153.809,-31.250,0.000
1587070394.601,-179.688,-1000.000,-325.195,-36.133,0.000
1587070394.605,-278.809,-974.609,-334.961,-50.781,0.000
