timestamps,TP9,AF7,AF8,TP10,Right AUX
1587071667.666,791.992,35.156,-247.070,-0.488,0.000
1587071667.670,143.555,18.066,-410.156,37.109,0.000
1587071667.673,-788.574,-15.137,-677.246,25.391,0.000
1587071667.677,-308.594,-2.441,-571.777,-5.859,0.000
1587071667.681,707.031,30.762,-252.441,9.766,0.000
1587071667.685,409.180,14.648,-356.934,16.113,0.000
1587071667.689,-658.691,-18.555,-681.641,9.277,0.000
1587071667.693,-585.449,-13.672,-614.258,-9.766,0.000
1587071667.697,496.582,26.367,-295.410,-10.254,0.000
1587071667.701,636.719,38.574,-246.582,16.113,0.000
1587071667.705,-416.016,-18.066,-594.727,18.066,0.000
1587071667.709,-763.184,-41.504,-729.980,-0.488,0.000
1587071667.712,223.145,13.672,-321.289,-18.066,0.000
1587071667.716,755.859,28.809,-222.656,0.000,0.000
1587071667.720,-110.840,0.000,-438.965,21.973,0.000
1587071667.724,-829.102,-17.090,-551.758,-2.441,0.000
1587071667.728,-86.426,-7.324,-459.473,-16.113,0.000
1587071667.732,769.531,10.254,-341.797,14.160,0.000
1587071667.736,183.594,-17.090,-558.105,16.602,0.000
1587071667.740,-778.809,-34.668,-689.453,-7.324,0.000
1587071667.744,-381.836,5.859,-451.660,-34.668,0.000
1587071667.748,666.504,27.832,-298.828,-35.645,0.000
1587071667.752,497.070,9.277,-395.996,-9.766,0.000
1587071667.755,-595.703,-7.812,-556.152,15.625,0.000
1587071667.759,-643.555,2.930,-468.750,2.930,0.000
1587071667.763,438.477,14.648,-378.418,-15.137,0.000
1587071667.767,682.617,14.648,-382.812,1.465,0.000
1587071667.771,-320.312,-0.488,-468.262,-9.766,0.000
1587071667.775,-754.395,-9.766,-534.180,-31.738,0.000
1587071667.779,145.508,-4.883,-520.508,-26.367,0.000
1587071667.783,759.766,7.324,-474.609,-11.230,0.000
1587071667.787,-24.902,4.395,-469.238,-3.418,0.000
1587071667.791,-803.223,-18.555,-589.844,-9.766,0.000
1587071667.795,-161.621,-18.555,-604.980,-7.324,0.000
1587071667.798,741.211,6.348,-458.984,-7.812,0.000
1587071667.802,283.691,23.926,-331.055,-2.441,0.000
1587071667.806,-725.098,-2.930,-553.711,-4.883,0.000
1587071667.810,-468.750,-7.812,-556.641,-27.344,0.000
1587071667.814,625.977,24.902,-280.762,-15.137,0.000
1587071667.818,534.180,26.855,-246.094,12.207,0.000
1587071667.822,-474.609,-6.348,-512.207,4.883,0.000
1587071667.826,-578.613,-23.926,-637.207,-29.785,0.000
1587071667.830,349.121,7.324,-427.734,-7.812,0.000
1587071667.834,712.402,36.621,-241.211,15.625,0.000
1587071667.837,-253.906,4.395,-436.523,-11.230,0.000
1587071667.841,-802.246,-31.250,-627.930,-23.926,0.000
1587071667.845,52.246,-8.789,-446.777,-38.574,0.000
1587071667.849,772.949,23.926,-264.648,-33.203,0.000
1587071667.853,49.805,8.301,-408.203,-2.930,0.000
1587071667.857,-814.941,-17.578,-591.309,-4.883,0.000
1587071667.861,-256.348,-2.930,-469.238,-38.086,0.000
1587071667.865,728.516,22.949,-275.879,-28.809,0.000
1587071667.869,346.191,8.789,-404.297,4.395,0.000
1587071667.873,-724.121,-21.973,-690.430,13.672,0.000
1587071667.877,-512.207,-11.230,-592.285,-4.395,0.000
1587071667.880,575.195,17.578,-355.957,-31.738,0.000
1587071667.884,609.375,5.859,-462.891,-5.371,0.000
1587071667.888,-460.938,-23.926,-700.684,14.160,0.000
1587071667.892,-732.910,-1.465,-536.621,-17.090,0.000
1587071667.896,290.039,25.879,-355.957,-26.855,0.000
1587071667.900,712.891,28.809,-328.613,-6.836,0.000
1587071667.904,-215.332,5.371,-501.465,7.812,0.000
1587071667.908,-805.664,-9.766,-611.328,-16.113,0.000
1587071667.912,-13.672,10.742,-475.098,-43.945,0.000
1587071667.916,775.879,21.484,-387.695,-32.227,0.000
1587071667.920,146.973,-3.418,-511.230,-13.184,0.000
1587071667.923,-786.621,-24.414,-620.605,6.348,0.000
1587071667.927,-327.637,1.953,-496.582,-6.836,0.000
1587071667.931,698.242,6.836,-477.539,-35.156,0.000
1587071667.935,416.016,3.906,-463.867,4.395,0.000
1587071667.939,-659.668,11.230,-497.559,3.418,0.000
1587071667.943,-596.680,-3.418,-583.008,-32.715,0.000
1587071667.947,493.164,9.277,-380.371,-33.203,0.000
1587071667.951,666.016,25.879,-279.785,-0.488,0.000
1587071667.955,-388.184,0.000,-472.168,3.418,0.000
1587071667.959,-718.262,-18.555,-623.047,2.930,0.000
1587071667.962,247.070,-0.488,-507.812,15.137,0.000
1587071667.966,759.766,19.043,-346.680,-2.441,0.000
1587071667.970,-74.219,4.395,-472.656,4.883,0.000
1587071667.974,-829.102,-30.762,-729.980,2.441,0.000
1587071667.978,-109.375,-23.438,-659.180,-32.715,0.000
1587071667.982,767.578,29.297,-269.531,-38.086,0.000
1587071667.986,236.328,24.414,-360.840,-17.578,0.000
1587071667.990,-740.723,-16.602,-615.234,-15.137,0.000
1587071667.994,-400.879,-4.883,-505.859,-34.180,0.000
1587071667.998,636.719,24.414,-276.367,-33.691,0.000
1587071668.002,493.652,11.230,-353.027,-15.137,0.000
1587071668.005,-570.312,-15.625,-569.824,-34.668,0.000
1587071668.009,-634.277,-8.789,-539.062,-41.016,0.000
1587071668.013,423.340,11.230,-409.668,-29.785,0.000
1587071668.017,699.219,11.719,-375.000,-17.578,0.000
1587071668.021,-310.059,-29.297,-662.109,-1.465,0.000
1587071668.025,-775.879,-36.133,-749.512,-9.766,0.000
1587071668.029,127.930,21.973,-385.254,-20.020,0.000
1587071668.033,764.648,36.133,-301.270,-2.930,0.000
1587071668.037,8.789,11.719,-470.215,-14.160,0.000
1587071668.041,-807.129,-3.418,-571.289,-23.926,0.000
1587071668.045,-187.988,10.742,-421.875,-19.531,0.000
1587071668.048,760.254,23.926,-346.680,-12.695,0.000
1587071668.052,280.762,14.160,-436.035,14.648,0.000
1587071668.056,-672.363,-4.883,-532.715,20.508,0.000
1587071668.060,-391.113,-9.277,-543.945,-21.484,0.000
1587071668.064,584.473,-1.465,-514.160,-26.367,0.000
1587071668.068,553.223,-3.906,-547.852,-9.277,0.000
1587071668.072,-519.043,0.488,-486.328,-39.062,0.000
1587071668.076,-694.336,5.859,-518.066,-54.199,0.000
1587071668.080,344.238,10.254,-399.414,-39.062,0.000
1587071668.084,713.379,12.695,-309.082,-18.066,0.000
1587071668.087,-247.070,8.789,-420.410,-3.906,0.000
1587071668.091,-816.895,-5.371,-557.129,-27.344,0.000
1587071668.095,37.598,10.254,-449.707,-31.738,0.000
1587071668.099,770.020,35.645,-266.113,-25.879,0.000
1587071668.103,68.848,20.508,-408.691,-2.930,0.000
1587071668.107,-806.152,-4.883,-615.234,6.348,0.000
1587071668.111,-278.320,-9.766,-661.133,-26.855,0.000
1587071668.115,712.402,19.531,-434.570,-23.438,0.000
1587071668.119,385.742,38.086,-289.551,-24.414,0.000
1587071668.123,-661.621,0.000,-560.547,-24.414,0.000
1587071668.127,-533.203,-5.859,-566.406,-24.414,0.000
1587071668.130,541.992,32.715,-309.570,-23.438,0.000
1587071668.134,621.094,43.457,-258.789,-11.719,0.000
1587071668.138,-443.848,3.418,-541.992,-2.441,0.000
1587071668.142,-716.797,-11.719,-654.785,9.277,0.000
1587071668.146,288.086,27.832,-328.613,-4.883,0.000
1587071668.150,759.277,35.645,-245.605,-25.879,0.000
1587071668.154,-133.789,-3.906,-564.453,1.465,0.000
1587071668.158,-799.805,-24.414,-708.984,-2.441,0.000
1587071668.162,-24.902,4.883,-469.238,-12.695,0.000
1587071668.166,807.129,40.527,-250.977,-13.184,0.000
1587071668.170,185.059,5.371,-501.953,-10.742,0.000
1587071668.173,-775.391,-39.062,-812.988,0.488,0.000
1587071668.177,-332.520,-1.465,-540.527,-12.695,0.000
1587071668.181,713.867,33.203,-308.594,3.418,0.000
1587071668.185,481.445,20.020,-420.410,25.879,0.000
1587071668.189,-608.887,-2.930,-546.387,-2.441,0.000
1587071668.193,-583.008,1.465,-503.418,-44.922,0.000
1587071668.197,493.164,20.020,-380.371,-64.453,0.000
1587071668.201,671.875,14.160,-408.203,-28.809,0.000
1587071668.205,-378.418,-12.695,-595.703,-17.090,0.000
1587071668.209,-777.832,-10.254,-593.262,-62.500,0.000
1587071668.212,184.082,19.043,-390.137,-82.520,0.000
1587071668.216,754.883,15.625,-380.859,-55.176,0.000
1587071668.220,-84.961,8.301,-460.938,-26.367,0.000
1587071668.224,-823.730,11.230,-546.875,-35.156,0.000
1587071668.228,-123.535,17.090,-485.352,-31.738,0.000
1587071668.232,760.742,35.156,-324.707,-25.391,0.000
1587071668.236,241.211,29.297,-361.816,-20.020,0.000
1587071668.240,-746.094,3.418,-517.578,-19.043,0.000
1587071668.244,-407.715,0.977,-559.082,-41.504,0.000
1587071668.248,651.367,18.555,-449.707,-33.203,0.000
1587071668.252,529.785,23.438,-397.461,0.488,0.000
1587071668.255,-552.246,0.977,-568.359,15.137,0.000
1587071668.259,-644.531,-17.090,-708.984,-4.395,0.000
1587071668.263,412.109,1.465,-543.457,-19.531,0.000
1587071668.267,710.449,37.598,-249.023,-20.996,0.000
1587071668.271,-283.691,16.113,-435.059,12.207,0.000
1587071668.275,-799.805,-15.625,-616.211,0.488,0.000
1587071668.279,104.492,5.859,-430.176,-22.461,0.000
1587071668.283,781.250,30.273,-264.160,-22.949,0.000
1587071668.287,18.066,8.789,-443.359,-15.625,0.000
1587071668.291,-812.012,-21.484,-665.039,-11.719,0.000
1587071668.295,-203.613,-13.672,-598.145,-37.109,0.000
1587071668.298,754.883,20.996,-359.375,-39.551,0.000
1587071668.302,320.312,18.066,-377.441,-10.254,0.000
1587071668.306,-711.914,-33.691,-716.309,-1.953,0.000
1587071668.310,-468.262,-14.648,-629.395,-38.086,0.000
1587071668.314,597.168,38.086,-272.461,-48.828,0.000
1587071668.318,560.547,23.438,-368.164,-14.648,0.000
1587071668.322,-509.766,-3.418,-563.965,-7.324,0.000
1587071668.326,-705.078,0.488,-513.672,-37.109,0.000
1587071668.330,331.543,29.297,-304.199,-30.762,0.000
1587071668.334,730.469,28.809,-304.688,-20.508,0.000
1587071668.337,-221.680,-5.859,-545.898,-20.020,0.000
1587071668.341,-820.312,-21.973,-639.160,-9.277,0.000
1587071668.345,8.789,-6.836,-457.031,-25.879,0.000
1587071668.349,762.695,0.977,-416.992,-26.855,0.000
1587071668.353,81.543,-17.578,-586.914,-8.301,0.000
1587071668.357,-806.152,-13.672,-549.316,-43.945,0.000
1587071668.361,-302.734,-1.953,-454.590,-63.477,0.000
1587071668.365,688.477,4.395,-324.707,-48.828,0.000
1587071668.369,384.766,5.371,-348.145,-24.902,0.000
1587071668.373,-670.898,-13.672,-524.414,-25.391,0.000
1587071668.377,-550.781,-22.461,-585.938,-33.203,0.000
1587071668.380,523.438,0.000,-395.508,-41.992,0.000
1587071668.384,610.840,14.160,-331.543,-41.504,0.000
1587071668.388,-437.012,-9.766,-558.105,-29.297,0.000
1587071668.392,-754.883,-29.297,-661.621,-41.016,0.000
1587071668.396,237.305,-7.324,-481.445,-34.180,0.000
1587071668.400,752.441,15.625,-286.621,-33.691,0.000
1587071668.404,-129.883,1.465,-405.762,-38.086,0.000
1587071668.408,-809.082,-18.066,-598.633,-29.297,0.000
1587071668.412,-78.125,-26.855,-592.773,-40.527,0.000
1587071668.416,757.324,0.488,-346.191,-62.500,0.000
1587071668.420,190.918,6.836,-346.191,-36.133,0.000
1587071668.423,-766.113,-32.715,-616.211,-24.902,0.000
1587071668.427,-367.188,-26.855,-548.828,-53.711,0.000
1587071668.431,661.133,3.906,-317.871,-67.383,0.000
1587071668.435,438.477,-10.742,-381.836,-41.992,0.000
1587071668.439,-635.254,-49.805,-681.152,-28.320,0.000
1587071668.443,-624.512,-57.129,-769.043,-32.227,0.000
1587071668.447,449.219,-9.277,-373.047,-46.875,0.000
1587071668.451,657.227,8.301,-291.992,-38.086,0.000
1587071668.455,-353.027,-28.320,-530.273,-20.996,0.000
1587071668.459,-769.531,-37.598,-565.430,-42.480,0.000
1587071668.462,160.156,-4.883,-381.348,-55.176,0.000
1587071668.466,769.043,9.766,-303.223,-32.715,0.000
1587071668.470,-45.410,-15.625,-488.281,-52.734,0.000
1587071668.474,-808.105,-32.227,-561.035,-75.684,0.000
1587071668.478,-133.301,-13.184,-443.848,-64.941,0.000
1587071668.482,766.113,4.883,-343.750,-90.332,0.000
1587071668.486,277.344,-27.344,-577.148,-80.078,0.000
1587071668.490,-728.516,-41.504,-733.398,-60.547,0.000
1587071668.494,-417.480,-5.859,-528.809,-66.895,0.000
1587071668.498,668.945,16.113,-379.395,-56.641,0.000
1587071668.502,570.801,18.555,-357.422,-38.086,0.000
1587071668.505,-532.227,8.789,-506.836,-38.086,0.000
1587071668.509,-619.629,7.812,-521.973,-48.340,0.000
1587071668.513,443.359,15.137,-384.766,-58.594,0.000
1587071668.517,744.629,18.066,-342.285,-56.152,0.000
1587071668.521,-237.305,6.836,-451.172,-29.785,0.000
1587071668.525,-776.855,-0.977,-544.922,-37.109,0.000
1587071668.529,98.145,2.441,-547.363,-40.039,0.000
1587071668.533,794.922,4.395,-503.418,-16.113,0.000
1587071668.537,50.293,3.906,-470.215,-26.367,0.000
1587071668.541,-799.316,-0.977,-551.270,-21.973,0.000
1587071668.545,-208.008,5.859,-518.066,-26.855,0.000
1587071668.548,755.371,26.367,-367.676,-36.133,0.000
1587071668.552,365.234,22.461,-384.766,-18.555,0.000
1587071668.556,-661.621,-9.766,-623.047,-49.805,0.000
1587071668.560,-471.680,-9.766,-586.426,-77.637,0.000
1587071668.564,601.562,24.414,-310.547,-79.102,0.000
1587071668.568,625.000,26.367,-316.895,-61.035,0.000
1587071668.572,-431.152,-6.836,-574.707,-49.316,0.000
1587071668.576,-666.504,-26.367,-700.684,-69.336,0.000
1587071668.580,340.820,-2.930,-454.590,-71.289,0.000
1587071668.584,795.410,26.855,-248.047,-57.617,0.000
1587071668.587,-125.000,0.977,-500.977,-44.434,0.000
1587071668.591,-739.746,-34.180,-676.270,-38.574,0.000
1587071668.595,64.453,-6.348,-483.887,-43.945,0.000
1587071668.599,863.281,26.367,-315.430,-51.270,0.000
1587071668.603,214.355,5.859,-410.645,-39.551,0.000
1587071668.607,-735.352,-23.438,-611.328,-39.551,0.000
1587071668.611,-273.438,-9.277,-517.090,-98.633,0.000
1587071668.615,724.609,14.648,-244.629,-146.484,0.000
1587071668.619,438.965,4.883,-327.148,-152.344,0.000
1587071668.623,-644.043,-27.832,-637.695,-199.707,0.000
1587071668.627,-581.543,-22.949,-566.406,-298.340,0.000
1587071668.630,509.277,14.160,-307.129,-375.977,0.000
1587071668.634,645.020,11.230,-358.887,-388.184,0.000
1587071668.638,-405.762,-18.555,-611.328,-374.512,0.000
1587071668.642,-747.559,0.000,-474.609,-405.273,0.000
1587071668.646,258.789,25.391,-256.836,-417.480,0.000
1587071668.650,789.062,30.762,-180.176,-375.000,0.000
1587071668.654,-104.492,19.043,-334.473,-348.145,0.000
1587071668.658,-823.242,7.812,-488.281,-353.027,0.000
1587071668.662,-9.766,24.902,-355.469,-354.492,0.000
1587071668.666,721.680,36.133,-297.852,-308.594,0.000
1587071668.670,26.855,20.020,-462.891,-246.582,0.000
1587071668.673,-737.305,6.348,-584.473,-242.676,0.000
1587071668.677,-305.664,23.926,-506.836,-244.629,0.000
1587071668.681,735.840,36.133,-438.965,-258.789,0.000
1587071668.685,540.039,39.551,-425.293,-273.438,0.000
1587071668.689,-565.430,37.598,-469.727,-264.648,0.000
1587071668.693,-578.613,25.879,-569.824,-272.461,0.000
1587071668.697,529.785,51.270,-364.746,-278.320,0.000
1587071668.701,735.840,68.848,-216.797,-285.156,0.000
1587071668.705,-317.383,40.527,-438.965,-251.465,0.000
1587071668.709,-727.539,21.973,-630.859,-217.285,0.000
1587071668.712,237.793,48.340,-471.680,-238.770,0.000
1587071668.716,882.812,72.266,-305.176,-245.605,0.000
1587071668.720,73.730,50.781,-480.469,-201.660,0.000
1587071668.724,-672.363,20.020,-768.555,-179.688,0.000
1587071668.728,16.602,26.855,-696.289,-178.711,0.000
1587071668.732,919.922,75.195,-303.223,-141.113,0.000
1587071668.736,456.543,75.684,-344.238,-102.051,0.000
1587071668.740,-570.801,30.762,-629.395,-140.137,0.000
1587071668.744,-250.000,39.551,-583.984,-174.316,0.000
1587071668.748,824.707,80.566,-313.477,-136.230,0.000
1587071668.752,779.297,76.660,-339.844,-105.957,0.000
1587071668.755,-318.359,36.621,-629.395,-97.168,0.000
1587071668.759,-417.969,37.109,-639.160,-89.844,0.000
1587071668.763,666.016,64.941,-475.098,-34.180,0.000
1587071668.767,930.176,64.453,-389.160,5.371,0.000
1587071668.771,-28.809,20.508,-654.297,0.488,0.000
1587071668.775,-578.125,12.207,-755.371,-5.371,0.000
1587071668.779,304.199,58.105,-410.156,2.930,0.000
1587071668.783,-952.637,65.918,-292.480,-3.906,0.000
1587071668.787,341.309,31.738,-504.883,-5.859,0.000
1587071668.791,-558.594,7.324,-672.852,-13.184,0.000
1587071668.795,-7.324,29.297,-472.656,-39.551,0.000
1587071668.798,954.102,40.527,-334.473,-11.230,0.000
1587071668.802,569.824,20.020,-452.637,13.672,0.000
1587071668.806,-521.973,2.441,-622.070,-14.160,0.000
1587071668.810,-360.840,-0.977,-597.656,-15.137,0.000
1587071668.814,746.094,9.766,-480.957,-14.160,0.000
1587071668.818,767.578,1.953,-523.438,-26.855,0.000
1587071668.822,-342.285,-8.301,-540.527,-20.020,0.000
1587071668.826,-608.887,-9.277,-559.082,-21.484,0.000
1587071668.830,433.105,-0.977,-401.367,-20.020,0.000
1587071668.834,885.254,12.695,-234.863,10.742,0.000
1587071668.837,-71.289,6.348,-373.535,40.039,0.000
1587071668.841,-742.676,-15.137,-577.148,-2.930,0.000
1587071668.845,72.266,-12.207,-448.730,-50.293,0.000
1587071668.849,880.859,8.789,-229.980,3.906,0.000
1587071668.853,232.910,0.488,-355.469,-3.418,0.000
1587071668.857,-706.055,-36.133,-621.094,-97.656,0.000
1587071668.861,-248.535,-44.434,-662.109,-86.914,0.000
1587071668.865,791.016,-6.836,-326.660,-62.500,0.000
1587071668.869,521.484,17.090,-120.117,-97.168,0.000
1587071668.873,-583.984,-26.367,-500.977,-139.648,0.000
1587071668.877,-565.918,-39.062,-532.715,-183.594,0.000
1587071668.880,518.555,2.441,-61.035,-163.574,0.000
1587071668.884,700.195,10.742,121.582,-139.648,0.000
1587071668.888,-376.465,-31.250,-354.492,-170.410,0.000
1587071668.892,-739.258,-46.387,-587.402,-216.309,0.000
1587071668.896,234.375,-6.348,-188.965,-216.797,0.000
1587071668.900,722.656,4.883,163.086,-167.480,0.000
1587071668.904,-157.227,-43.945,-332.520,-157.715,0.000
1587071668.908,-882.812,-74.219,-721.680,-214.844,0.000
1587071668.912,-152.832,-31.738,-419.434,-214.844,0.000
1587071668.916,735.352,8.301,18.555,-160.156,0.000
1587071668.920,175.781,-13.672,-56.152,-141.602,0.000
1587071668.923,-819.336,-41.504,-535.156,-217.285,0.000
1587071668.927,-458.984,-18.066,-348.633,-257.324,0.000
1587071668.931,598.633,10.742,160.645,-168.457,0.000
1587071668.935,451.172,-0.488,71.777,-119.141,0.000
1587071668.939,-635.254,-31.738,-432.617,-170.898,0.000
1587071668.943,-690.430,-27.832,-440.430,-209.473,0.000
1587071668.947,383.301,-2.441,-2.930,-172.852,0.000
1587071668.951,640.625,-10.742,47.363,-139.648,0.000
1587071668.955,-386.719,-30.762,-377.441,-171.875,0.000
1587071668.959,-874.023,-22.949,-446.777,-222.168,0.000
1587071668.962,35.156,0.000,-188.965,-205.078,0.000
1587071668.966,677.246,1.953,-49.805,-166.016,0.000
1587071668.970,-116.699,-5.371,-246.094,-180.664,0.000
1587071668.974,-920.898,-10.742,-414.062,-252.441,0.000
1587071668.978,-271.484,-3.906,-356.934,-262.695,0.000
1587071668.982,662.598,20.996,21.484,-235.352,0.000
1587071668.986,230.957,17.090,154.297,-237.793,0.000
1587071668.990,-785.156,-11.719,-298.828,-333.008,0.000
1587071668.994,-554.688,-21.484,-486.816,-354.980,0.000
1587071668.998,520.020,-1.953,-210.938,-264.648,0.000
1587071669.002,470.703,10.254,-110.840,-259.766,0.000
1587071669.005,-588.379,-14.648,-423.340,-324.219,0.000
1587071669.009,-735.840,-33.691,-632.812,-368.164,0.000
1587071669.013,306.152,-0.977,-364.746,-318.848,0.000
1587071669.017,675.293,41.992,169.434,-251.465,0.000
1587071669.021,-294.434,10.742,-189.941,-269.531,0.000
1587071669.025,-862.793,-25.879,-563.477,-332.520,0.000
1587071669.029,-29.297,1.465,-244.629,-317.871,0.000
1587071669.033,729.980,36.621,213.379,-259.277,0.000
1587071669.037,-10.254,10.254,-4.883,-253.418,0.000
1587071669.041,-766.113,-24.414,-511.230,-298.828,0.000
1587071669.045,-175.293,-16.113,-454.102,-287.598,0.000
1587071669.048,628.906,16.602,13.184,-217.285,0.000
1587071669.052,301.270,18.555,162.109,-204.590,0.000
1587071669.056,-734.375,-45.410,-538.086,-269.531,0.000
1587071669.060,-582.520,-45.410,-688.477,-251.953,0.000
1587071669.064,473.145,24.414,11.719,-208.984,0.000
1587071669.068,521.484,19.043,183.105,-225.586,0.000
1587071669.072,-541.992,-22.461,-328.613,-269.531,0.000
1587071669.076,-807.129,-26.367,-511.719,-313.477,0.000
1587071669.080,209.961,4.395,-170.898,-276.855,0.000
1587071669.084,712.402,11.719,46.387,-211.914,0.000
1587071669.087,-167.480,-15.625,-349.609,-226.074,0.000
1587071669.091,-833.008,-37.109,-644.043,-293.945,0.000
1587071669.095,-108.398,-12.207,-367.188,-256.348,0.000
1587071669.099,677.734,4.883,-220.703,-183.594,0.000
1587071669.103,90.332,-18.555,-438.477,-205.078,0.000
1587071669.107,-804.688,-14.160,-489.746,-260.742,0.000
1587071669.111,-377.441,0.488,-392.090,-235.352,0.000
1587071669.115,602.539,18.555,-168.457,-137.695,0.000
1587071669.119,370.117,22.461,-140.137,-68.359,0.000
1587071669.123,-689.453,-8.789,-422.363,-92.285,0.000
1587071669.127,-654.785,-18.555,-504.883,-112.793,0.000
1587071669.130,416.992,12.207,-225.586,-24.902,0.000
1587071669.134,600.586,22.949,39.551,14.160,0.000
1587071669.138,-436.035,-14.648,-369.141,-4.395,0.000
1587071669.142,-811.523,-30.273,-632.324,-6.836,0.000
1587071669.146,131.836,-8.789,-472.168,31.738,0.000
1587071669.150,687.012,17.090,-124.512,95.215,0.000
1587071669.154,-127.441,9.277,-101.562,85.938,0.000
1587071669.158,-849.609,-26.855,-577.637,24.414,0.000
1587071669.162,-162.109,-9.277,-454.590,43.945,0.000
1587071669.166,694.336,24.902,70.801,133.789,0.000
1587071669.170,173.340,9.766,3.418,122.070,0.000
1587071669.173,-811.035,-34.180,-583.008,60.547,0.000
1587071669.177,-472.656,-31.250,-605.469,60.547,0.000
1587071669.181,595.215,17.578,-58.105,131.348,0.000
1587071669.185,452.637,14.648,-2.930,163.086,0.000
1587071669.189,-628.418,-36.133,-639.160,107.910,0.000
1587071669.193,-703.613,-48.340,-736.328,95.703,0.000
1587071669.197,365.234,15.137,-163.086,127.930,0.000
1587071669.201,650.879,30.273,-9.766,158.691,0.000
1587071669.205,-350.098,-20.508,-423.340,130.859,0.000
1587071669.209,-833.496,-28.320,-577.148,73.730,0.000
1587071669.212,52.734,9.766,-278.809,108.887,0.000
1587071669.216,718.262,24.414,6.836,184.082,0.000
1587071669.220,-17.578,-12.695,-328.613,156.250,0.000
1587071669.224,-843.750,-33.203,-601.562,113.770,0.000
1587071669.228,-235.352,-7.324,-408.203,140.625,0.000
1587071669.232,695.801,16.113,-142.578,200.684,0.000
1587071669.236,252.441,-28.320,-422.363,221.680,0.000
1587071669.240,-770.996,-69.824,-760.742,148.926,0.000
1587071669.244,-532.227,-34.180,-514.648,128.418,0.000
1587071669.248,552.246,1.465,-128.418,190.430,0.000
1587071669.252,510.254,-2.930,-85.449,227.539,0.000
1587071669.255,-565.918,-29.785,-497.070,161.621,0.000
1587071669.259,-742.188,-44.434,-624.023,97.168,0.000
1587071669.263,276.855,-19.043,-393.066,156.250,0.000
1587071669.267,667.969,3.418,-245.117,228.027,0.000
1587071669.271,-259.277,-18.066,-436.035,176.270,0.000
1587071669.275,-855.469,-35.645,-593.262,97.656,0.000
1587071669.279,-53.711,-25.879,-514.648,134.277,0.000
1587071669.283,693.359,-13.672,-383.301,221.680,0.000
1587071669.287,45.410,-17.090,-392.578,202.637,0.000
1587071669.291,-809.082,-28.320,-523.926,121.582,0.000
1587071669.295,-315.918,-23.438,-555.176,126.465,0.000
1587071669.298,651.367,6.836,-239.746,201.172,0.000
1587071669.302,341.797,18.066,-99.121,214.844,0.000
1587071669.306,-681.641,-19.531,-540.039,143.555,0.000
1587071669.310,-567.871,-27.344,-593.262,130.859,0.000
1587071669.314,470.215,19.531,-169.434,206.543,0.000
1587071669.318,568.359,27.344,-120.117,237.305,0.000
1587071669.322,-443.359,-12.207,-548.828,159.668,0.000
1587071669.326,-745.605,-29.297,-715.332,129.883,0.000
1587071669.330,225.586,7.812,-373.535,189.453,0.000
1587071669.334,717.285,41.504,37.598,222.168,0.000
1587071669.337,-146.484,9.277,-304.688,176.270,0.000
1587071669.341,-805.176,-34.668,-685.059,127.930,0.000
1587071669.345,-59.082,-1.465,-439.453,147.461,0.000
1587071669.349,771.484,43.945,19.043,203.125,0.000
1587071669.353,185.059,13.672,-158.691,206.055,0.000
1587071669.357,-777.832,-26.367,-664.551,110.352,0.000
1587071669.361,-378.418,-1.465,-517.090,122.070,0.000
1587071669.365,636.719,39.551,-2.930,203.125,0.000
1587071669.369,432.617,21.973,-81.055,185.547,0.000
1587071669.373,-608.887,-26.367,-704.102,112.305,0.000
1587071669.377,-609.375,-24.414,-647.461,86.914,0.000
1587071669.380,445.801,16.602,-256.348,156.738,0.000
1587071669.384,641.602,13.184,-322.266,193.359,0.000
1587071669.388,-379.395,-26.855,-694.336,104.004,0.000
1587071669.392,-782.715,-14.648,-605.957,33.691,0.000
1587071669.396,145.996,26.855,-301.270,88.379,0.000
1587071669.400,738.281,32.227,-118.652,165.039,0.000
1587071669.404,-61.035,3.418,-372.070,114.746,0.000
1587071669.408,-829.102,-18.555,-600.098,42.969,0.000
1587071669.412,-176.270,-3.418,-452.148,65.918,0.000
1587071669.416,669.434,14.160,-323.730,132.812,0.000
1587071669.420,169.434,-3.906,-457.520,134.766,0.000
1587071669.423,-742.676,-23.438,-649.414,41.504,0.000
1587071669.427,-422.363,-5.371,-553.711,41.016,0.000
1587071669.431,566.895,2.930,-435.547,135.742,0.000
1587071669.435,444.824,0.000,-428.223,157.227,0.000
1587071669.439,-567.383,-9.277,-578.613,78.125,0.000
1587071669.443,-669.434,-22.461,-674.316,27.344,0.000
1587071669.447,365.234,16.113,-328.613,100.098,0.000
1587071669.451,658.691,36.133,-107.910,156.738,0.000
1587071669.455,-298.828,1.953,-415.527,91.309,0.000
1587071669.459,-782.227,-23.926,-669.434,9.766,0.000
1587071669.462,60.059,-6.836,-479.980,62.500,0.000
1587071669.466,714.844,12.695,-285.156,141.602,0.000
1587071669.470,-12.695,-8.789,-447.266,101.074,0.000
1587071669.474,-824.707,-45.898,-774.414,61.035,0.000
1587071669.478,-247.559,-28.809,-693.848,77.148,0.000
1587071669.482,702.637,32.227,-15.137,111.328,0.000
1587071669.486,287.598,21.484,-43.457,110.840,0.000
1587071669.490,-669.434,-25.391,-575.684,34.668,0.000
1587071669.494,-429.199,-21.484,-576.172,40.527,0.000
1587071669.498,551.270,18.066,-223.145,113.281,0.000
1587071669.502,576.660,24.414,-62.500,129.395,0.000
1587071669.505,-510.254,-21.973,-481.934,48.828,0.000
1587071669.509,-760.742,-39.551,-627.930,-33.203,0.000
1587071669.513,253.418,-14.648,-383.789,40.039,0.000
1587071669.517,672.363,0.488,-237.305,82.520,0.000
1587071669.521,-254.883,-45.410,-587.402,17.578,0.000
1587071669.525,-859.863,-61.523,-771.484,-38.086,0.000
1587071669.529,-63.477,-7.324,-390.625,-36.133,0.000
1587071669.533,706.055,6.836,-138.672,43.945,0.000
1587071669.537,35.156,-21.484,-318.848,36.621,0.000
1587071669.541,-875.977,-44.922,-622.070,-66.895,0.000
1587071669.545,-382.324,-26.855,-477.051,-59.570,0.000
1587071669.548,607.910,1.465,-209.961,47.363,0.000
1587071669.552,338.379,-12.695,-334.473,67.871,0.000
1587071669.556,-685.547,-46.875,-681.641,-24.902,0.000
1587071669.560,-585.938,-40.039,-653.809,-43.457,0.000
1587071669.564,461.914,-9.766,-421.387,48.828,0.000
1587071669.568,564.453,-9.277,-416.992,85.938,0.000
1587071669.572,-466.309,-19.043,-493.164,20.996,0.000
1587071669.576,-791.504,-24.414,-577.637,-32.227,0.000
1587071669.580,182.129,-4.395,-378.418,6.836,0.000
1587071669.584,702.148,12.695,-142.090,60.059,0.000
1587071669.587,-157.227,-8.789,-347.168,43.945,0.000
1587071669.591,-853.516,-39.551,-638.184,-29.297,0.000
1587071669.595,-139.160,-24.414,-501.465,-28.320,0.000
1587071669.599,694.824,6.836,-145.996,53.711,0.000
1587071669.603,163.086,-11.230,-290.039,56.641,0.000
1587071669.607,-782.227,-50.781,-679.688,-19.531,0.000
1587071669.611,-421.875,-62.500,-739.258,-15.137,0.000
1587071669.615,630.371,-20.020,-428.711,58.594,0.000
1587071669.619,451.172,12.695,-185.547,62.500,0.000
1587071669.623,-633.789,-24.902,-549.805,1.953,0.000
1587071669.627,-658.203,-33.691,-619.629,-18.066,0.000
1587071669.630,400.391,5.371,-261.719,33.203,0.000
1587071669.634,638.672,21.973,-119.141,57.129,0.000
1587071669.638,-376.953,-19.531,-485.352,20.020,0.000
1587071669.642,-829.590,-47.852,-699.219,-39.551,0.000
1587071669.646,91.797,-6.348,-366.211,-20.020,0.000
1587071669.650,714.844,19.531,-148.438,39.551,0.000
1587071669.654,-62.988,-27.832,-524.414,8.301,0.000
1587071669.658,-791.992,-65.430,-820.801,-61.523,0.000
1587071669.662,-163.086,-25.391,-555.176,-46.387,0.000
1587071669.666,685.547,19.043,-174.805,30.762,0.000
1587071669.670,227.051,-3.906,-344.727,22.949,0.000
1587071669.673,-761.719,-41.504,-767.090,-47.363,0.000
1587071669.677,-478.516,-18.066,-553.223,-45.410,0.000
1587071669.681,579.590,15.625,-225.586,20.996,0.000
1587071669.685,507.324,0.000,-275.391,45.898,0.000
1587071669.689,-548.340,-38.574,-595.215,-29.785,0.000
1587071669.693,-674.316,-31.738,-610.840,-58.105,0.000
1587071669.697,349.121,2.441,-373.535,9.766,0.000
1587071669.701,684.082,-2.930,-362.793,64.453,0.000
1587071669.705,-266.602,-31.250,-568.359,26.367,0.000
1587071669.709,-793.945,-35.645,-658.691,-44.922,0.000
1587071669.712,54.199,-9.766,-458.008,-19.531,0.000
1587071669.716,756.836,1.465,-337.402,61.523,0.000
1587071669.720,82.520,-10.254,-468.262,37.598,0.000
1587071669.724,-758.789,-22.949,-646.973,-30.762,0.000
1587071669.728,-257.812,-19.043,-565.430,-0.977,0.000
1587071669.732,696.289,5.859,-315.430,90.820,0.000
1587071669.736,357.910,14.648,-336.914,80.566,0.000
1587071669.740,-676.758,-15.137,-602.051,-10.254,0.000
1587071669.744,-536.133,-26.855,-652.344,-0.977,0.000
1587071669.748,529.297,1.953,-435.547,77.148,0.000
1587071669.752,579.102,12.207,-370.605,97.656,0.000
1587071669.755,-491.699,-14.160,-605.957,28.809,0.000
1587071669.759,-753.418,-35.645,-794.922,-21.973,0.000
1587071669.763,244.141,-4.395,-578.125,45.898,0.000
1587071669.767,714.844,46.387,-199.707,83.008,0.000
1587071669.771,-170.898,25.391,-463.867,7.324,0.000
1587071669.775,-807.617,-6.348,-698.242,-61.523,0.000
1587071669.779,-47.852,20.996,-437.988,-22.949,0.000
1587071669.783,720.703,50.293,-144.531,38.086,0.000
1587071669.787,112.793,24.414,-345.215,24.902,0.000
1587071669.791,-793.457,-19.531,-706.055,-72.266,0.000
1587071669.795,-342.773,-9.277,-604.980,-63.965,0.000
1587071669.798,649.902,41.504,-264.160,26.855,0.000
1587071669.802,392.090,44.434,-276.855,17.090,0.000
1587071669.806,-650.391,-3.906,-647.949,-47.363,0.000
1587071669.810,-591.797,1.465,-613.770,-63.965,0.000
1587071669.814,475.098,50.293,-208.496,14.160,0.000
1587071669.818,648.926,47.363,-145.020,45.410,0.000
1587071669.822,-368.652,-13.184,-617.188,-4.395,0.000
1587071669.826,-736.816,-12.207,-692.383,-50.293,0.000
1587071669.830,200.195,39.551,-318.848,-15.137,0.000
1587071669.834,728.516,41.992,-188.477,67.383,0.000
1587071669.837,-104.980,6.348,-522.949,38.574,0.000
1587071669.841,-825.195,-13.184,-729.980,-41.016,0.000
1587071669.845,-130.859,11.719,-475.586,-18.555,0.000
1587071669.849,752.930,29.785,-367.188,62.012,0.000
1587071669.853,211.914,4.395,-576.660,58.594,0.000
1587071669.857,-753.418,-2.930,-608.887,-30.273,0.000
1587071669.861,-382.324,15.137,-530.273,-16.113,0.000
1587071669.865,657.715,35.645,-297.852,70.801,0.000
1587071669.869,523.438,36.133,-276.855,51.270,0.000
1587071669.873,-538.086,9.766,-539.551,-26.367,0.000
1587071669.877,-609.375,-0.977,-620.117,-55.664,0.000
1587071669.880,416.992,25.391,-339.844,23.438,0.000
1587071669.884,663.086,32.227,-230.469,71.777,0.000
1587071669.888,-316.406,-1.953,-592.285,5.859,0.000
1587071669.892,-770.996,-12.695,-690.918,-44.922,0.000
1587071669.896,128.906,1.953,-568.848,9.277,0.000
1587071669.900,772.461,29.297,-346.680,70.312,0.000
1587071669.904,22.461,31.250,-357.910,32.227,0.000
1587071669.908,-765.625,-5.859,-696.777,-8.789,0.000
1587071669.912,-174.805,9.766,-526.367,12.207,0.000
1587071669.916,746.094,51.758,-150.391,55.664,0.000
1587071669.920,311.523,38.574,-256.836,50.293,0.000
1587071669.923,-702.148,-8.301,-673.828,-18.066,0.000
1587071669.927,-462.891,-7.324,-666.016,-44.434,0.000
1587071669.931,586.914,38.574,-249.023,20.508,0.000
1587071669.935,551.758,32.227,-274.902,59.570,0.000
1587071669.939,-492.188,-15.137,-731.934,15.625,0.000
1587071669.943,-665.039,-19.043,-773.926,-15.137,0.000
1587071669.947,348.145,27.832,-357.910,41.992,0.000
1587071669.951,724.121,46.387,-186.035,77.637,0.000
1587071669.955,-221.191,-8.789,-596.191,15.625,0.000
1587071669.959,-780.273,-37.109,-833.984,-39.062,0.000
1587071669.962,48.828,22.949,-423.340,1.465,0.000
1587071669.966,743.652,43.457,-270.020,74.219,0.000
1587071669.970,60.059,3.906,-505.371,52.246,0.000
1587071669.974,-795.410,-20.508,-654.785,-14.648,0.000
1587071669.978,-275.879,2.441,-521.973,9.766,0.000
1587071669.982,705.566,32.227,-329.102,101.562,0.000
1587071669.986,372.070,-3.418,-580.078,115.234,0.000
1587071669.990,-661.133,-33.691,-833.008,39.062,0.000
1587071669.994,-533.203,4.883,-579.102,21.973,0.000
1587071669.998,513.672,33.691,-314.453,101.074,0.000
1587071670.002,597.168,21.973,-350.586,153.809,0.000
1587071670.005,-453.125,-2.441,-592.285,80.078,0.000
1587071670.009,-744.141,-6.348,-632.812,27.832,0.000
1587071670.013,217.773,3.418,-458.496,89.355,0.000
1587071670.017,679.199,9.277,-357.910,131.836,0.000
1587071670.021,-192.383,-13.184,-535.645,113.770,0.000
1587071670.025,-862.305,-48.828,-749.023,83.984,0.000
1587071670.029,-131.836,-52.734,-667.480,110.352,0.000
1587071670.033,687.012,-39.062,-489.258,218.750,0.000
1587071670.037,97.168,-42.969,-506.836,216.797,0.000
1587071670.041,-844.727,-66.895,-668.945,138.672,0.000
1587071670.045,-427.734,-82.520,-727.539,161.621,0.000
1587071670.048,580.566,-58.594,-508.301,227.539,0.000
1587071670.052,351.562,-45.410,-333.984,238.281,0.000
1587071670.056,-725.586,-82.520,-618.652,179.199,0.000
1587071670.060,-732.910,-99.609,-668.945,165.527,0.000
1587071670.064,332.520,-70.312,-319.824,208.496,0.000
1587071670.068,526.367,-57.617,-244.141,252.441,0.000
1587071670.072,-524.414,-93.750,-581.055,218.750,0.000
1587071670.076,-945.312,-123.535,-765.625,149.414,0.000
1587071670.080,2.930,-97.168,-493.652,172.852,0.000
1587071670.084,596.680,-64.941,-277.832,230.957,0.000
1587071670.087,-238.281,-87.402,-523.926,233.398,0.000
1587071670.091,-999.512,-125.977,-738.281,182.129,0.000
1587071670.095,-293.945,-94.727,-504.395,150.879,0.000
1587071670.099,626.465,-47.852,-213.867,203.613,0.000
1587071670.103,119.629,-74.219,-387.207,220.703,0.000
1587071670.107,-883.789,-108.887,-673.340,162.109,0.000
1587071670.111,-569.824,-89.355,-562.012,152.832,0.000
1587071670.115,561.035,-46.387,-254.395,207.031,0.000
1587071670.119,401.367,-51.270,-341.309,231.934,0.000
1587071670.123,-748.535,-89.844,-723.145,194.824,0.000
1587071670.127,-753.418,-88.867,-706.543,155.762,0.000
1587071670.130,341.309,-51.758,-380.859,166.992,0.000
1587071670.134,653.320,-41.504,-407.227,189.941,0.000
1587071670.138,-336.426,-67.383,-703.125,179.199,0.000
1587071670.142,-860.352,-62.988,-660.645,131.836,0.000
1587071670.146,31.738,-30.762,-436.035,122.559,0.000
1587071670.150,722.168,-9.277,-259.766,154.297,0.000
1587071670.154,-50.293,-24.414,-430.664,145.508,0.000
1587071670.158,-900.879,-41.504,-646.973,95.215,0.000
1587071670.162,-302.246,-26.855,-527.344,70.801,0.000
1587071670.166,688.477,-5.371,-340.820,76.172,0.000
1587071670.170,259.766,-19.531,-458.008,82.520,0.000
1587071670.173,-829.102,-34.668,-633.789,26.367,0.000
1587071670.177,-586.914,-18.555,-556.641,-107.910,0.000
1587071670.181,510.254,-14.160,-506.836,-238.281,0.000
1587071670.185,478.516,-3.906,-448.242,-222.656,0.000
1587071670.189,-604.004,4.395,-503.418,-177.246,0.000
1587071670.193,-791.504,-11.719,-633.301,-192.383,0.000
1587071670.197,241.211,12.207,-405.273,-138.672,0.000
1587071670.201,646.484,26.855,-323.730,-102.539,0.000
1587071670.205,-281.738,-0.977,-529.297,-71.289,0.000
1587071670.209,-893.555,-16.602,-660.645,-49.805,0.000
1587071670.212,-50.293,5.371,-556.152,-58.105,0.000
1587071670.216,723.145,26.855,-365.723,5.371,0.000
1587071670.220,40.039,11.719,-453.125,36.621,0.000
1587071670.224,-878.418,-19.531,-756.348,8.301,0.000
1587071670.228,-361.328,-10.742,-706.055,7.324,0.000
1587071670.232,682.617,46.875,-255.859,17.578,0.000
1587071670.236,374.023,43.457,-315.430,12.695,0.000
1587071670.240,-723.633,-7.812,-641.113,20.508,0.000
1587071670.244,-618.652,-3.418,-602.051,-6.348,0.000
1587071670.248,506.836,41.992,-313.965,-16.602,0.000
1587071670.252,614.746,45.898,-325.195,31.250,0.000
1587071670.255,-461.914,8.301,-615.723,32.715,0.000
1587071670.259,-789.551,-0.488,-690.430,25.391,0.000
1587071670.263,194.336,29.785,-516.113,34.180,0.000
1587071670.267,722.656,40.527,-378.906,38.574,0.000
1587071670.271,-172.363,-6.348,-667.480,53.223,0.000
1587071670.275,-884.766,-19.531,-818.848,42.969,0.000
1587071670.279,-122.070,30.273,-495.117,15.625,0.000
1587071670.283,740.723,45.410,-367.188,28.809,0.000
1587071670.287,162.598,26.367,-511.719,44.434,0.000
1587071670.291,-817.871,12.695,-652.832,24.902,0.000
1587071670.295,-419.434,21.973,-553.711,24.414,0.000
1587071670.298,639.648,33.691,-406.250,22.949,0.000
1587071670.302,439.453,27.344,-463.867,14.160,0.000
1587071670.306,-610.840,10.742,-651.367,18.066,0.000
1587071670.310,-622.559,2.930,-707.520,3.906,0.000
1587071670.314,411.621,16.113,-581.543,5.859,0.000
1587071670.318,653.809,13.184,-608.398,38.086,0.000
1587071670.322,-382.812,8.301,-650.391,16.113,0.000
1587071670.326,-828.613,9.766,-644.531,-17.578,0.000
1587071670.330,119.141,16.113,-521.973,-20.020,0.000
1587071670.334,748.535,32.227,-390.625,-16.113,0.000
1587071670.337,-62.988,23.926,-471.680,-22.949,0.000
1587071670.341,-862.305,-6.348,-665.039,-40.527,0.000
1587071670.345,-188.477,-3.418,-578.125,-54.199,0.000
1587071670.349,749.023,28.320,-345.215,-41.504,0.000
1587071670.353,248.535,20.508,-461.426,-13.672,0.000
1587071670.357,-787.598,-15.137,-783.691,-11.719,0.000
1587071670.361,-473.633,-4.395,-721.680,-30.273,0.000
1587071670.365,618.164,39.551,-396.484,-0.977,0.000
1587071670.369,527.832,46.387,-367.676,49.805,0.000
1587071670.373,-563.477,16.113,-617.676,28.809,0.000
1587071670.377,-684.082,-16.113,-787.598,28.320,0.000
1587071670.380,374.512,14.648,-548.340,38.574,0.000
1587071670.384,722.168,57.129,-308.105,0.488,0.000
1587071670.388,-253.418,20.996,-548.828,1.465,0.000
1587071670.392,-824.219,-3.418,-716.797,-0.488,0.000
1587071670.396,52.246,27.344,-470.703,-15.137,0.000
1587071670.400,777.344,49.805,-317.871,-9.277,0.000
1587071670.404,37.598,16.602,-600.098,26.367,0.000
1587071670.408,-816.895,-18.555,-831.055,25.391,0.000
1587071670.412,-240.723,2.930,-629.883,-31.250,0.000
1587071670.416,729.980,42.480,-323.242,-24.414,0.000
1587071670.420,341.309,21.484,-513.672,4.883,0.000
1587071670.423,-710.449,-17.578,-826.172,-3.906,0.000
1587071670.427,-514.648,10.742,-585.449,-36.133,0.000
1587071670.431,586.914,44.434,-364.746,-43.457,0.000
1587071670.435,614.746,32.715,-413.086,-21.973,0.000
1587071670.439,-472.656,-0.488,-622.559,1.465,0.000
1587071670.443,-721.191,-0.977,-639.648,-18.066,0.000
1587071670.447,306.152,25.391,-453.125,-36.621,0.000
1587071670.451,751.953,29.785,-445.312,-12.695,0.000
1587071670.455,-170.898,14.160,-559.570,1.465,0.000
1587071670.459,-806.641,9.766,-583.984,-33.203,0.000
1587071670.462,-7.324,20.996,-505.371,-45.410,0.000
1587071670.466,783.203,22.461,-440.918,-26.855,0.000
1587071670.470,148.926,15.625,-454.590,-9.766,0.000
1587071670.474,-755.859,12.207,-601.562,-12.207,0.000
1587071670.478,-311.523,15.625,-560.547,-46.875,0.000
1587071670.482,687.500,26.367,-369.629,-53.711,0.000
1587071670.486,428.223,23.926,-372.559,-29.297,0.000
1587071670.490,-670.898,5.859,-576.660,-16.602,0.000
1587071670.494,-541.992,-3.906,-652.344,-48.828,0.000
1587071670.498,567.871,9.277,-518.066,-74.707,0.000
1587071670.502,624.023,21.973,-432.129,-54.688,0.000
1587071670.505,-418.457,-1.465,-580.078,-27.344,0.000
1587071670.509,-770.020,-28.320,-789.062,-33.691,0.000
1587071670.513,210.449,-10.742,-656.250,-45.410,0.000
1587071670.517,759.277,32.715,-291.504,-38.086,0.000
1587071670.521,-88.379,16.602,-449.219,-22.461,0.000
1587071670.525,-798.828,-15.137,-642.090,-26.855,0.000
1587071670.529,-71.289,1.953,-474.121,-42.480,0.000
1587071670.533,791.992,23.438,-302.734,-28.809,0.000
1587071670.537,212.891,11.719,-428.711,-1.953,0.000
1587071670.541,-726.074,-18.555,-679.199,-7.324,0.000
1587071670.545,-329.590,-19.531,-653.809,-35.156,0.000
1587071670.548,670.898,19.043,-384.766,-28.320,0.000
1587071670.552,498.047,25.879,-367.676,-17.090,0.000
1587071670.556,-579.590,-32.227,-767.578,-8.301,0.000
1587071670.560,-630.859,-27.344,-736.816,-21.484,0.000
1587071670.564,435.059,28.320,-341.797,-31.738,0.000
1587071670.568,707.520,19.531,-341.309,-11.230,0.000
1587071670.572,-298.828,-9.766,-579.590,-7.324,0.000
1587071670.576,-761.719,-13.184,-621.094,-10.742,0.000
1587071670.580,169.922,14.648,-395.508,-22.949,0.000
1587071670.584,796.875,20.020,-327.637,-6.348,0.000
1587071670.587,-2.930,-7.324,-552.734,9.766,0.000
1587071670.591,-802.734,-20.996,-709.473,-25.391,0.000
1587071670.595,-164.062,-5.859,-556.152,-33.203,0.000
1587071670.599,759.766,7.812,-475.098,-31.250,0.000
1587071670.603,305.176,-11.230,-594.238,-16.113,0.000
1587071670.607,-701.660,-15.625,-575.195,-12.695,0.000
1587071670.611,-437.500,-4.395,-554.688,-40.039,0.000
1587071670.615,619.629,1.953,-397.949,-34.180,0.000
1587071670.619,565.918,8.789,-352.051,8.301,0.000
1587071670.623,-503.906,-1.953,-535.645,3.906,0.000
1587071670.627,-681.152,-14.648,-584.961,-31.250,0.000
1587071670.630,347.656,0.000,-419.434,-19.043,0.000
1587071670.634,714.355,6.348,-341.309,7.324,0.000
1587071670.638,-236.328,-20.020,-571.777,-6.348,0.000
1587071670.642,-812.500,-33.203,-662.109,-23.926,0.000
1587071670.646,22.949,-24.414,-632.324,-18.066,0.000
1587071670.650,774.414,-4.395,-492.676,-10.254,0.000
1587071670.654,80.078,5.371,-407.715,-20.508,0.000
1587071670.658,-798.340,-23.926,-610.352,-20.020,0.000
1587071670.662,-272.949,-20.020,-543.457,-35.645,0.000
1587071670.666,723.633,9.766,-307.617,-50.293,0.000
1587071670.670,391.602,2.930,-360.840,-28.809,0.000
1587071670.673,-685.059,-33.691,-652.832,-1.465,0.000
1587071670.677,-546.875,-27.832,-625.000,-19.531,0.000
1587071670.681,554.688,11.230,-364.258,-44.922,0.000
1587071670.685,621.094,7.812,-380.371,5.859,0.000
1587071670.689,-454.590,-36.133,-689.941,24.902,0.000
1587071670.693,-729.492,-52.246,-799.805,-30.762,0.000
1587071670.697,281.250,0.488,-395.508,-48.828,0.000
1587071670.701,747.070,21.484,-268.066,-27.832,0.000
1587071670.705,-158.691,-18.555,-541.016,-17.090,0.000
1587071670.709,-814.453,-35.645,-702.148,-33.203,0.000
1587071670.712,-55.176,-0.977,-439.941,-54.688,0.000
1587071670.716,759.277,22.461,-266.602,-45.898,0.000
1587071670.720,152.344,-0.977,-437.012,-3.906,0.000
1587071670.724,-785.645,-20.020,-573.730,-2.441,0.000
1587071670.728,-339.844,-5.371,-526.367,-14.648,0.000
1587071670.732,694.336,7.324,-402.344,-12.207,0.000
1587071670.736,458.496,-10.742,-507.812,-4.883,0.000
1587071670.740,-637.695,-24.414,-665.527,1.953,0.000
1587071670.744,-612.305,-1.465,-551.758,-25.879,0.000
1587071670.748,480.957,15.137,-412.109,-47.852,0.000
1587071670.752,644.043,3.906,-430.664,-42.969,0.000
1587071670.755,-415.527,-14.648,-561.035,-42.969,0.000
1587071670.759,-807.617,-18.555,-597.168,-62.988,0.000
1587071670.763,145.996,-6.348,-447.266,-83.984,0.000
1587071670.767,699.219,0.488,-381.348,-87.891,0.000
1587071670.771,-135.254,-13.672,-501.953,-63.477,0.000
1587071670.775,-869.629,-28.809,-633.301,-80.566,0.000
1587071670.779,-200.684,-26.855,-634.277,-112.305,0.000
1587071670.783,657.715,-23.926,-559.082,-114.746,0.000
1587071670.787,119.629,-20.020,-485.352,-101.074,0.000
1587071670.791,-860.840,-41.016,-671.875,-118.164,0.000
1587071670.795,-537.598,-41.992,-704.102,-159.668,0.000
1587071670.798,502.441,-5.859,-421.875,-165.039,0.000
1587071670.802,381.348,0.977,-355.957,-129.395,0.000
1587071670.806,-695.312,-31.250,-603.516,-117.676,0.000
1587071670.810,-772.949,-44.434,-689.453,-150.879,0.000
1587071670.814,290.527,-8.789,-425.781,-151.367,0.000
1587071670.818,595.703,9.277,-306.152,-119.141,0.000
1587071670.822,-394.043,-19.043,-536.133,-107.910,0.000
1587071670.826,-910.156,-44.434,-724.609,-113.770,0.000
1587071670.830,-7.324,-17.090,-507.812,-109.863,0.000
1587071670.834,690.918,19.043,-266.602,-99.121,0.000
1587071670.837,-55.176,-0.977,-458.008,-59.082,0.000
1587071670.841,-880.371,-46.875,-715.820,-48.340,0.000
1587071670.845,-261.230,-21.484,-552.734,-66.895,0.000
1587071670.849,704.590,21.484,-352.539,-62.012,0.000
1587071670.853,293.457,2.441,-483.398,-27.832,0.000
1587071670.857,-734.375,-18.555,-648.438,-20.020,0.000
1587071670.861,-508.789,-6.836,-561.035,-55.176,0.000
1587071670.865,581.055,20.996,-329.102,-47.852,0.000
1587071670.869,529.785,10.254,-418.457,0.977,0.000
1587071670.873,-552.246,-26.855,-713.867,11.719,0.000
1587071670.877,-707.520,-26.855,-715.820,-17.578,0.000
1587071670.880,318.359,4.395,-433.594,-18.555,0.000
1587071670.884,726.074,11.230,-458.984,-0.488,0.000
1587071670.888,-208.008,-16.113,-727.051,3.418,0.000
1587071670.892,-795.410,-8.301,-591.309,0.977,0.000
1587071670.896,16.602,17.578,-420.410,-21.973,0.000
1587071670.900,776.367,24.902,-315.918,-1.465,0.000
1587071670.904,115.234,15.625,-412.598,29.297,0.000
1587071670.908,-778.320,-2.930,-615.723,21.973,0.000
1587071670.912,-271.973,0.000,-560.547,4.395,0.000
1587071670.916,722.168,23.926,-366.211,3.906,0.000
1587071670.920,409.180,15.137,-454.102,33.691,0.000
1587071670.923,-640.625,-10.742,-672.363,28.320,0.000
1587071670.927,-510.254,0.977,-585.938,11.719,0.000
1587071670.931,563.477,7.812,-536.621,22.949,0.000
1587071670.935,667.480,10.254,-495.605,32.715,0.000
1587071670.939,-387.207,16.113,-462.402,29.297,0.000
1587071670.943,-703.125,-5.371,-612.793,28.320,0.000
1587071670.947,301.270,7.812,-443.359,19.043,0.000
1587071670.951,801.758,33.203,-271.484,15.137,0.000
1587071670.955,-79.590,11.230,-451.172,33.691,0.000
1587071670.959,-762.695,-15.625,-626.465,32.715,0.000
1587071670.962,-30.273,-4.395,-535.645,24.414,0.000
1587071670.966,800.293,20.508,-367.188,29.785,0.000
1587071670.970,227.539,11.230,-442.383,48.828,0.000
1587071670.974,-726.562,-24.902,-743.652,42.969,0.000
1587071670.978,-333.008,-12.207,-666.016,18.555,0.000
1587071670.982,708.496,31.738,-295.410,7.812,0.000
1587071670.986,504.395,29.785,-291.992,15.625,0.000
1587071670.990,-590.332,-17.578,-635.254,16.113,0.000
1587071670.994,-590.820,-27.832,-724.121,-6.348,0.000
1587071670.998,471.680,25.391,-318.359,-25.879,0.000
1587071671.002,686.035,29.297,-286.621,-10.254,0.000
1587071671.005,-329.590,-12.695,-545.898,10.742,0.000
1587071671.009,-753.418,-20.996,-610.840,-15.625,0.000
1587071671.013,194.824,2.441,-480.469,-16.113,0.000
1587071671.017,781.250,12.207,-379.883,0.000,0.000
1587071671.021,-37.598,-0.977,-496.582,-7.324,0.000
1587071671.025,-791.992,-16.602,-622.070,8.789,0.000
1587071671.029,-127.441,2.441,-483.887,0.488,0.000
1587071671.033,774.414,28.809,-286.133,-9.766,0.000
1587071671.037,285.156,10.254,-428.711,15.625,0.000
1587071671.041,-718.262,-7.812,-575.684,8.789,0.000
1587071671.045,-425.293,8.789,-485.352,-12.695,0.000
1587071671.048,636.230,26.855,-329.590,-5.371,0.000
1587071671.052,526.855,1.953,-424.805,17.090,0.000
1587071671.056,-558.105,-12.207,-578.613,11.230,0.000
1587071671.060,-649.414,-6.348,-618.652,0.977,0.000
1587071671.064,409.180,-0.977,-522.461,0.000,0.000
1587071671.068,731.445,3.418,-472.656,21.973,0.000
1587071671.072,-260.254,5.371,-480.469,25.879,0.000
1587071671.076,-782.227,6.836,-550.293,-2.930,0.000
1587071671.080,97.656,9.766,-446.289,-9.277,0.000
1587071671.084,791.992,21.973,-349.121,-0.488,0.000
1587071671.087,50.293,11.230,-426.758,7.812,0.000
1587071671.091,-809.082,-6.836,-553.711,-0.977,0.000
1587071671.095,-218.262,4.395,-484.375,-8.789,0.000
1587071671.099,735.352,28.809,-250.977,-16.602,0.000
1587071671.103,338.867,20.996,-351.074,-2.930,0.000
1587071671.107,-693.359,-9.766,-604.980,25.879,0.000
1587071671.111,-493.164,-26.367,-733.398,15.137,0.000
1587071671.115,586.914,7.324,-478.027,-17.090,0.000
1587071671.119,607.910,41.016,-237.305,-12.695,0.000
1587071671.123,-462.402,6.836,-527.832,14.160,0.000
1587071671.127,-689.453,-11.230,-641.602,1.953,0.000
1587071671.130,343.750,18.066,-393.066,-19.531,0.000
1587071671.134,772.949,38.574,-230.957,-8.789,0.000
1587071671.138,-176.758,6.836,-467.285,1.953,0.000
1587071671.142,-802.246,-20.508,-682.129,13.184,0.000
1587071671.146,-1.953,0.977,-486.816,-6.348,0.000
1587071671.150,761.230,28.320,-259.277,-20.020,0.000
1587071671.154,112.305,2.441,-513.672,5.371,0.000
1587071671.158,-787.109,-33.691,-800.781,22.461,0.000
1587071671.162,-309.082,1.465,-560.059,-6.348,0.000
1587071671.166,705.566,44.922,-239.746,-28.809,0.000
1587071671.170,428.711,23.438,-394.043,-17.578,0.000
1587071671.173,-646.973,-7.324,-626.953,-8.301,0.000
1587071671.177,-578.613,2.441,-514.160,-16.602,0.000
1587071671.181,498.047,25.879,-333.984,-21.973,0.000
1587071671.185,638.672,18.066,-340.820,18.555,0.000
1587071671.189,-398.926,-3.906,-518.066,16.113,0.000
1587071671.193,-750.000,-3.906,-552.246,-23.926,0.000
1587071671.197,220.215,14.160,-404.297,-20.020,0.000
1587071671.201,763.184,7.812,-416.504,5.859,0.000
1587071671.205,-100.586,-12.695,-541.992,17.090,0.000
1587071671.209,-826.172,-8.301,-590.332,-11.719,0.000
1587071671.212,-87.891,10.742,-452.148,-38.086,0.000
1587071671.216,777.344,19.531,-354.980,-19.531,0.000
1587071671.220,209.961,14.160,-393.555,-1.953,0.000
1587071671.224,-754.883,-4.883,-540.039,0.977,0.000
1587071671.228,-373.535,-3.418,-538.086,-19.531,0.000
1587071671.232,666.504,19.531,-336.426,-19.043,0.000
1587071671.236,491.699,18.555,-313.477,2.441,0.000
1587071671.240,-583.008,-0.977,-505.859,14.160,0.000
1587071671.244,-612.793,-13.184,-608.887,-4.395,0.000
1587071671.248,454.590,-0.488,-470.215,-17.578,0.000
1587071671.252,703.125,11.719,-368.164,3.418,0.000
1587071671.255,-308.105,-2.930,-514.648,14.160,0.000
1587071671.259,-753.418,-24.414,-696.777,14.648,0.000
1587071671.263,173.828,-16.113,-624.512,-2.441,0.000
1587071671.267,782.715,26.855,-269.531,-8.301,0.000
1587071671.271,-16.113,15.625,-395.020,14.160,0.000
1587071671.275,-791.504,-18.555,-614.258,19.043,0.000
1587071671.279,-136.230,1.465,-500.488,13.184,0.000
1587071671.283,788.086,40.527,-271.973,36.133,0.000
1587071671.287,328.613,32.227,-370.605,61.035,0.000
1587071671.291,-670.898,-2.441,-662.109,34.668,0.000
1587071671.295,-401.367,-0.977,-636.719,7.324,0.000
1587071671.298,645.020,34.668,-373.047,1.953,0.000
1587071671.302,577.637,45.410,-318.359,12.207,0.000
1587071671.306,-503.906,-9.766,-701.660,28.809,0.000
1587071671.310,-666.504,-17.578,-757.812,14.648,0.000
1587071671.314,391.602,35.645,-341.309,-13.672,0.000
1587071671.318,748.535,34.668,-305.176,-1.953,0.000
1587071671.322,-222.656,3.418,-559.570,23.438,0.000
1587071671.326,-772.461,-1.953,-605.957,21.484,0.000
1587071671.330,67.383,22.461,-413.086,0.488,0.000
1587071671.334,800.293,30.273,-318.848,-4.883,0.000
1587071671.337,75.684,8.789,-529.785,1.465,0.000
1587071671.341,-764.160,-11.230,-700.195,-1.465,0.000
1587071671.345,-190.918,3.418,-534.180,-14.160,0.000
1587071671.349,735.840,20.508,-442.871,-12.207,0.000
1587071671.353,359.863,1.465,-564.941,16.602,0.000
1587071671.357,-693.359,-5.859,-574.707,14.160,0.000
1587071671.361,-519.043,5.859,-537.109,-12.695,0.000
1587071671.365,561.035,14.648,-371.582,0.488,0.000
1587071671.369,604.980,16.602,-340.332,20.508,0.000
1587071671.373,-443.359,0.488,-505.859,2.441,0.000
1587071671.377,-677.246,-9.766,-594.727,-21.973,0.000
1587071671.380,313.965,8.789,-438.965,-27.344,0.000
1587071671.384,764.648,29.297,-333.496,-17.090,0.000
1587071671.388,-135.742,9.277,-531.738,5.859,0.000
1587071671.392,-798.340,-9.277,-633.301,-8.789,0.000
1587071671.396,-26.855,-11.719,-670.898,-30.762,0.000
1587071671.400,773.926,9.277,-516.602,-22.461,0.000
1587071671.404,156.738,26.855,-385.742,-2.930,0.000
1587071671.408,-785.156,-7.812,-607.422,1.465,0.000
1587071671.412,-337.402,-4.395,-539.551,-25.391,0.000
1587071671.416,681.152,25.879,-309.570,-25.879,0.000
1587071671.420,419.922,19.531,-343.262,-11.719,0.000
1587071671.423,-645.996,-9.766,-587.402,-15.625,0.000
1587071671.427,-580.566,-11.719,-598.145,-29.297,0.000
1587071671.431,462.891,13.672,-363.281,-21.973,0.000
1587071671.435,608.887,9.766,-384.277,5.859,0.000
1587071671.439,-384.766,-20.508,-637.207,7.324,0.000
1587071671.443,-758.301,-37.598,-782.227,4.883,0.000
1587071671.447,193.848,5.859,-448.730,-8.301,0.000
1587071671.451,761.719,35.645,-250.000,-27.832,0.000
1587071671.455,-70.312,4.883,-486.328,-5.371,0.000
1587071671.459,-800.293,-12.695,-627.930,-13.184,0.000
1587071671.462,-103.027,14.648,-423.828,-39.551,0.000
1587071671.466,749.512,32.715,-269.531,-23.926,0.000
1587071671.470,215.820,10.254,-401.367,-10.742,0.000
1587071671.474,-770.996,-12.695,-580.566,-24.414,0.000
1587071671.478,-397.461,-0.977,-548.340,-30.273,0.000
1587071671.482,665.527,20.996,-375.977,-23.438,0.000
1587071671.486,489.746,-0.488,-533.203,-4.883,0.000
1587071671.490,-586.426,-20.020,-716.309,-2.441,0.000
1587071671.494,-657.227,0.488,-550.293,-32.227,0.000
1587071671.498,395.996,9.766,-418.457,-52.734,0.000
1587071671.502,666.016,14.160,-360.840,-31.738,0.000
1587071671.505,-324.219,0.977,-476.562,-19.531,0.000
1587071671.509,-799.805,-9.277,-544.922,-39.551,0.000
1587071671.513,77.637,3.418,-450.195,-50.293,0.000
1587071671.517,727.051,14.648,-345.703,-36.621,0.000
1587071671.521,-25.391,4.883,-420.898,-29.785,0.000
1587071671.525,-850.586,-17.090,-578.125,-68.359,0.000
1587071671.529,-254.883,-20.020,-574.219,-89.355,0.000
1587071671.533,686.523,-5.859,-477.051,-69.336,0.000
1587071671.537,245.605,-3.418,-463.867,-69.336,0.000
1587071671.541,-789.551,-20.508,-556.152,-78.613,0.000
1587071671.545,-573.242,-32.227,-668.945,-110.840,0.000
1587071671.548,493.164,-25.391,-594.238,-153.809,0.000
1587071671.552,474.609,-0.488,-399.902,-145.508,0.000
1587071671.556,-617.676,-21.973,-621.582,-128.418,0.000
1587071671.560,-821.289,-41.504,-697.754,-133.301,0.000
1587071671.564,212.891,-6.348,-462.402,-167.480,0.000
1587071671.568,596.191,7.324,-343.750,-178.223,0.000
1587071671.572,-341.309,-21.973,-505.371,-158.691,0.000
1587071671.576,-912.598,-54.199,-720.703,-154.297,0.000
1587071671.580,-101.074,-40.527,-548.340,-168.457,0.000
1587071671.584,628.906,-3.418,-307.129,-161.621,0.000
1587071671.587,-59.570,-17.090,-500.000,-141.113,0.000
1587071671.591,-924.805,-45.898,-732.910,-131.836,0.000
1587071671.595,-401.855,-28.809,-550.293,-154.297,0.000
1587071671.599,572.754,4.883,-310.059,-152.344,0.000
1587071671.603,271.484,-6.348,-414.062,-133.301,0.000
1587071671.607,-778.320,-49.316,-681.152,-135.254,0.000
1587071671.611,-641.602,-27.344,-575.684,-120.605,0.000
1587071671.615,461.426,5.859,-383.301,-115.723,0.000
1587071671.619,521.484,-7.324,-433.594,-89.355,0.000
1587071671.623,-512.695,-32.227,-642.578,-62.500,0.000
1587071671.627,-788.574,-37.109,-674.805,-75.195,0.000
1587071671.630,214.355,-10.254,-443.359,-77.148,0.000
1587071671.634,709.961,-7.324,-458.984,-47.852,0.000
1587071671.638,-163.574,-29.785,-658.203,-22.949,0.000
1587071671.642,-817.383,-20.996,-583.008,-25.391,0.000
1587071671.646,-41.016,2.441,-415.527,-17.090,0.000
1587071671.650,770.996,8.789,-315.918,-15.625,0.000
1587071671.654,176.758,0.000,-399.414,21.484,0.000
1587071671.658,-745.117,-12.207,-521.484,43.945,0.000
1587071671.662,-328.125,-4.883,-451.660,5.859,0.000
1587071671.666,691.895,10.254,-335.938,17.090,0.000
1587071671.670,433.105,-2.441,-440.430,35.156,0.000
1587071671.673,-625.488,-26.367,-613.770,36.621,0.000
1587071671.677,-562.500,-18.555,-567.383,22.949,0.000
1587071671.681,494.629,-9.766,-512.207,17.090,0.000
1587071671.685,680.664,-3.906,-451.660,27.832,0.000
1587071671.689,-333.984,0.000,-450.195,37.109,0.000
1587071671.693,-731.934,-18.066,-602.051,29.785,0.000
1587071671.697,209.961,2.441,-408.691,24.902,0.000
1587071671.701,798.340,29.297,-191.895,40.039,0.000
1587071671.705,-24.414,11.719,-349.609,41.504,0.000
1587071671.709,-772.461,-16.602,-605.957,25.879,0.000
1587071671.712,-95.215,-6.348,-520.508,26.367,0.000
1587071671.716,791.016,16.602,-339.355,37.109,0.000
1587071671.720,291.016,-2.930,-411.621,36.133,0.000
1587071671.724,-727.051,-39.062,-674.316,32.227,0.000
1587071671.728,-392.090,-38.574,-670.410,0.488,0.000
1587071671.732,679.688,0.000,-310.547,-2.441,0.000
1587071671.736,527.832,6.836,-286.621,31.738,0.000
1587071671.740,-546.875,-28.320,-524.414,30.762,0.000
1587071671.744,-629.883,-37.598,-565.430,12.695,0.000
1587071671.748,417.480,-4.395,-258.301,5.859,0.000
1587071671.752,699.219,-1.953,-187.012,18.066,0.000
1587071671.755,-283.691,-36.133,-423.828,45.410,0.000
1587071671.759,-779.297,-50.293,-535.645,36.133,0.000
1587071671.763,103.027,-29.785,-411.133,6.836,0.000
1587071671.767,768.555,-12.695,-279.785,22.461,0.000
1587071671.771,34.180,-46.875,-567.871,57.617,0.000
1587071671.775,-781.250,-60.059,-716.309,63.965,0.000
1587071671.779,-215.332,-16.602,-387.207,30.273,0.000
1587071671.783,724.121,-6.836,-234.863,20.996,0.000
1587071671.787,327.637,-27.832,-343.750,38.574,0.000
1587071671.791,-696.289,-48.828,-571.289,21.973,0.000
1587071671.795,-484.375,-39.551,-555.176,-7.812,0.000
1587071671.798,579.102,-15.625,-320.801,20.508,0.000
1587071671.802,566.895,-17.578,-305.664,48.828,0.000
1587071671.806,-495.605,-35.156,-504.395,25.879,0.000
1587071671.810,-713.867,-42.969,-574.219,5.371,0.000
1587071671.814,295.898,-28.320,-442.871,16.113,0.000
1587071671.818,703.613,-25.391,-435.059,26.367,0.000
1587071671.822,-215.332,-19.531,-438.965,21.973,0.000
1587071671.826,-810.547,-22.461,-491.211,8.789,0.000
1587071671.830,-3.418,-22.949,-454.590,-8.789,0.000
1587071671.834,744.141,-3.418,-329.590,5.371,0.000
1587071671.837,84.961,-9.766,-358.398,28.809,0.000
1587071671.841,-803.223,-32.227,-567.383,31.250,0.000
1587071671.845,-309.082,-25.391,-519.043,10.742,0.000
1587071671.849,682.617,1.465,-323.730,3.906,0.000
1587071671.853,384.766,-7.324,-421.387,21.484,0.000
1587071671.857,-664.551,-30.762,-612.305,11.230,0.000
1587071671.861,-574.219,-50.781,-749.023,13.184,0.000
1587071671.865,491.699,-28.809,-531.250,37.598,0.000
1587071671.869,596.191,5.371,-269.531,7.324,0.000
1587071671.873,-440.918,-19.531,-518.555,-6.836,0.000
1587071671.877,-750.488,-34.180,-625.000,-5.371,0.000
1587071671.880,219.727,-6.836,-398.926,-20.508,0.000
1587071671.884,729.492,15.625,-251.465,-11.719,0.000
1587071671.888,-131.836,-15.137,-488.770,8.301,0.000
1587071671.892,-828.613,-36.621,-669.922,-4.395,0.000
1587071671.896,-93.262,-7.324,-461.914,-26.855,0.000
1587071671.900,728.516,10.254,-330.078,-10.254,0.000
1587071671.904,163.574,-20.508,-543.457,11.719,0.000
1587071671.908,-764.648,-52.246,-777.832,-1.465,0.000
1587071671.912,-383.789,-29.785,-652.344,-28.320,0.000
1587071671.916,632.324,8.789,-383.789,-20.020,0.000
1587071671.920,437.500,5.859,-439.453,10.254,0.000
1587071671.923,-618.164,-22.461,-678.223,0.488,0.000
1587071671.927,-629.395,-17.578,-609.863,-22.949,0.000
1587071671.931,422.363,5.371,-407.227,-13.672,0.000
1587071671.935,660.645,2.930,-385.254,6.348,0.000
1587071671.939,-344.727,-20.020,-586.914,-6.348,0.000
1587071671.943,-788.086,-27.344,-652.832,-27.832,0.000
1587071671.947,124.023,-14.160,-511.230,-36.133,0.000
1587071671.951,724.609,-13.184,-506.348,-25.879,0.000
1587071671.955,-64.453,-26.855,-631.348,-17.090,0.000
1587071671.959,-824.707,-32.227,-669.922,-36.621,0.000
1587071671.962,-164.062,-18.555,-574.707,-59.082,0.000
1587071671.966,716.309,-20.508,-561.523,-41.016,0.000
1587071671.970,226.562,-29.297,-650.391,-27.344,0.000
1587071671.974,-750.000,-26.855,-718.262,-60.547,0.000
1587071671.978,-461.426,-24.902,-655.762,-80.078,0.000
1587071671.982,581.543,-5.859,-480.957,-72.754,0.000
1587071671.986,502.930,-1.465,-461.914,-59.570,0.000
1587071671.990,-566.406,-21.973,-637.207,-56.641,0.000
1587071671.994,-690.918,-28.809,-734.375,-67.383,0.000
1587071671.998,340.332,-17.090,-632.324,-67.383,0.000
1587071672.002,671.875,-3.418,-538.574,-52.734,0.000
1587071672.005,-272.461,-16.113,-661.133,-66.895,0.000
1587071672.009,-804.199,-30.273,-828.613,-95.215,0.000
1587071672.013,52.734,-16.113,-729.004,-71.289,0.000
1587071672.017,742.188,20.996,-395.020,-50.293,0.000
1587071672.021,27.344,10.742,-507.324,-61.523,0.000
1587071672.025,-806.152,-27.344,-718.750,-70.801,0.000
1587071672.029,-255.859,-23.438,-624.023,-90.332,0.000
1587071672.033,699.219,12.207,-389.648,-71.289,0.000
1587071672.037,337.402,8.789,-446.777,-36.133,0.000
1587071672.041,-692.383,-29.785,-718.750,-38.574,0.000
1587071672.045,-519.043,-31.250,-734.863,-59.082,0.000
1587071672.048,544.434,6.348,-474.609,-69.824,0.000
1587071672.052,573.242,19.531,-400.391,-54.688,0.000
1587071672.056,-464.355,-35.645,-760.254,-34.668,0.000
1587071672.060,-709.473,-46.387,-799.805,-52.734,0.000
1587071672.064,270.508,12.207,-451.660,-84.473,0.000
1587071672.068,698.242,17.090,-405.273,-73.730,0.000
1587071672.072,-203.125,-11.719,-576.172,-61.523,0.000
1587071672.076,-815.430,-18.066,-659.180,-71.289,0.000
1587071672.080,-35.645,-1.953,-466.797,-82.031,0.000
1587071672.084,733.887,4.395,-390.625,-54.688,0.000
1587071672.087,107.910,-15.625,-585.938,-33.203,0.000
1587071672.091,-792.969,-30.762,-676.758,-65.918,0.000
1587071672.095,-321.777,-20.996,-593.750,-77.637,0.000
1587071672.099,666.992,-7.324,-492.676,-58.105,0.000
1587071672.103,382.324,-17.578,-568.848,-43.457,0.000
1587071672.107,-666.992,-19.043,-597.168,-59.082,0.000
1587071672.111,-595.703,-5.859,-531.250,-76.172,0.000
1587071672.115,468.262,6.836,-392.090,-82.031,0.000
1587071672.119,617.188,10.742,-356.445,-51.270,0.000
1587071672.123,-407.715,-1.953,-484.375,-41.504,0.000
1587071672.127,-763.672,-12.207,-575.684,-72.754,0.000
1587071672.130,193.848,-1.465,-427.734,-73.730,0.000
1587071672.134,734.375,13.672,-312.500,-49.805,0.000
1587071672.138,-104.980,-3.906,-500.977,-43.945,0.000
1587071672.142,-811.523,-22.461,-655.762,-59.570,0.000
1587071672.146,-105.469,-17.090,-610.352,-53.711,0.000
1587071672.150,734.375,15.137,-386.230,-56.152,0.000
1587071672.154,191.895,22.461,-364.746,-43.945,0.000
1587071672.158,-770.996,-13.672,-615.723,-37.109,0.000
1587071672.162,-417.480,-28.809,-659.180,-49.805,0.000
1587071672.166,608.887,6.348,-382.812,-55.176,0.000
1587071672.170,467.285,28.809,-336.914,-21.973,0.000
1587071672.173,-579.102,-11.719,-617.676,0.488,0.000
1587071672.177,-635.742,-21.973,-630.859,-18.555,0.000
1587071672.181,407.227,4.395,-404.785,-12.207,0.000
1587071672.185,657.227,10.254,-395.020,21.484,0.000
1587071672.189,-321.777,-17.090,-638.184,45.898,0.000
1587071672.193,-767.090,-46.875,-778.809,36.133,0.000
1587071672.197,135.254,0.000,-425.781,27.344,0.000
1587071672.201,768.066,31.738,-230.957,51.758,0.000
1587071672.205,9.766,-6.836,-482.422,77.148,0.000
1587071672.209,-776.855,-29.297,-660.156,67.383,0.000
1587071672.212,-171.387,-4.883,-458.008,50.781,0.000
1587071672.216,729.004,20.996,-289.062,62.988,0.000
1587071672.220,286.133,1.953,-447.754,89.844,0.000
1587071672.224,-704.590,-23.926,-614.258,71.289,0.000
1587071672.228,-446.777,-14.648,-568.848,42.969,0.000
1587071672.232,596.191,7.812,-414.062,50.293,0.000
1587071672.236,532.715,-6.836,-531.738,83.008,0.000
1587071672.240,-515.137,-32.715,-764.160,79.102,0.000
1587071672.244,-673.340,-9.277,-594.727,41.992,0.000
1587071672.248,335.938,14.648,-392.578,37.598,0.000
1587071672.252,677.246,18.066,-379.395,74.707,0.000
1587071672.255,-256.348,2.930,-521.484,75.684,0.000
1587071672.259,-759.277,-10.742,-614.746,34.180,0.000
1587071672.263,57.129,2.441,-538.086,41.016,0.000
1587071672.267,729.004,17.578,-397.949,45.898,0.000
1587071672.271,61.523,11.719,-470.703,44.922,0.000
1587071672.275,-779.297,-11.230,-639.648,27.832,0.000
1587071672.279,-264.648,-20.020,-648.438,12.695,0.000
1587071672.283,691.406,-4.883,-551.270,32.227,0.000
1587071672.287,355.469,3.418,-514.160,38.086,0.000
1587071672.291,-667.969,-10.742,-601.074,9.277,0.000
1587071672.295,-523.438,-19.043,-727.539,1.953,0.000
1587071672.298,514.160,-7.812,-649.902,14.648,0.000
1587071672.302,581.543,20.996,-385.254,16.602,0.000
1587071672.306,-433.594,7.324,-542.480,20.020,0.000
1587071672.310,-712.402,-20.996,-659.668,2.930,0.000
1587071672.314,265.625,2.930,-431.641,5.371,0.000
1587071672.318,728.027,24.902,-333.008,35.156,0.000
1587071672.322,-128.418,-0.488,-544.922,41.016,0.000
1587071672.326,-761.230,-31.738,-726.562,1.953,0.000
1587071672.330,-31.250,-17.090,-560.059,-25.879,0.000
1587071672.334,750.488,24.414,-282.227,-16.113,0.000
1587071672.337,150.391,14.648,-432.617,-2.441,0.000
1587071672.341,-753.418,-35.156,-736.816,-7.812,0.000
1587071672.345,-319.336,-14.160,-581.543,-25.391,0.000
1587071672.349,657.715,30.762,-271.973,-28.809,0.000
1587071672.353,423.340,13.184,-330.566,5.859,0.000
1587071672.357,-606.934,-20.996,-571.777,-0.977,0.000
1587071672.361,-565.918,-13.672,-546.387,-12.695,0.000
1587071672.365,472.168,17.090,-285.645,0.000,0.000
1587071672.369,626.953,11.719,-283.203,11.230,0.000
1587071672.373,-355.469,-19.043,-574.707,21.484,0.000
1587071672.377,-712.891,-24.414,-646.973,2.930,0.000
1587071672.380,185.547,1.953,-391.113,-18.066,0.000
1587071672.384,749.023,8.301,-371.094,-21.484,0.000
1587071672.388,-49.316,-16.113,-590.820,-6.836,0.000
1587071672.392,-787.598,-11.230,-571.777,-24.414,0.000
1587071672.396,-113.281,8.301,-436.523,-29.297,0.000
1587071672.400,746.582,18.066,-281.250,-3.906,0.000
1587071672.404,250.488,10.254,-350.586,0.000,0.000
1587071672.408,-704.590,-5.371,-487.305,-32.227,0.000
1587071672.412,-391.113,-8.789,-448.730,-42.969,0.000
1587071672.416,639.160,5.371,-292.969,-12.695,0.000
1587071672.420,514.160,11.719,-347.656,11.230,0.000
1587071672.423,-544.434,-3.906,-527.832,-27.832,0.000
1587071672.427,-640.137,-2.930,-468.750,-63.965,0.000
1587071672.431,379.883,-2.441,-455.078,-74.707,0.000
1587071672.435,604.980,0.977,-392.090,-81.055,0.000
1587071672.439,-367.676,5.859,-397.461,-79.590,0.000
1587071672.443,-804.199,-8.789,-548.340,-129.883,0.000
1587071672.447,36.133,11.230,-351.074,-156.738,0.000
1587071672.451,671.875,35.156,-24.414,-155.273,0.000
1587071672.455,-67.871,18.066,-187.988,-164.551,0.000
1587071672.459,-854.980,-12.695,-578.613,-171.387,0.000
1587071672.462,-267.090,-2.441,-460.938,-165.039,0.000
1587071672.466,629.395,20.508,-284.180,-161.133,0.000
1587071672.470,220.703,9.277,-327.148,-149.902,0.000
1587071672.474,-758.789,-21.973,-604.492,-132.812,0.000
1587071672.478,-526.367,-27.832,-671.387,-128.418,0.000
1587071672.482,526.367,22.949,-216.797,-117.676,0.000
1587071672.486,519.531,36.621,-133.789,-98.633,0.000
1587071672.490,-504.883,-0.977,-493.652,-77.148,0.000
1587071672.494,-690.918,-1.953,-546.875,-81.055,0.000
1587071672.498,314.453,27.344,-267.578,-97.656,0.000
1587071672.502,696.289,21.484,-299.316,-77.637,0.000
1587071672.505,-226.562,-0.488,-481.445,-57.129,0.000
1587071672.509,-792.480,-5.859,-500.000,-75.684,0.000
1587071672.513,3.906,9.277,-422.363,-84.961,0.000
1587071672.517,743.652,34.180,-245.117,-79.590,0.000
1587071672.521,91.309,5.371,-465.820,-59.570,0.000
1587071672.525,-790.527,-18.066,-666.992,-53.711,0.000
1587071672.529,-292.969,22.949,-374.512,-60.547,0.000
1587071672.533,679.688,41.016,-96.680,-48.828,0.000
1587071672.537,371.094,26.367,-213.379,-39.062,0.000
1587071672.541,-643.555,6.348,-505.371,-47.852,0.000
1587071672.545,-509.277,13.184,-431.641,-54.199,0.000
1587071672.548,515.625,27.832,-259.277,-53.711,0.000
1587071672.552,591.309,24.414,-255.859,-58.105,0.000
1587071672.556,-411.621,4.395,-457.031,-54.199,0.000
1587071672.560,-714.355,-9.277,-565.918,-67.383,0.000
1587071672.564,234.863,10.254,-445.312,-67.871,0.000
1587071672.568,725.098,8.789,-433.594,-40.527,0.000
1587071672.572,-127.930,7.324,-462.891,-35.156,0.000
1587071672.576,-787.598,10.742,-498.047,-58.594,0.000
1587071672.580,-57.129,16.113,-483.887,-64.453,0.000
1587071672.584,747.070,31.250,-295.410,-50.293,0.000
1587071672.587,176.270,22.949,-278.320,-37.109,0.000
1587071672.591,-722.656,1.953,-514.160,-39.062,0.000
1587071672.595,-340.820,-5.859,-495.117,-51.270,0.000
1587071672.599,630.859,13.184,-234.375,-44.434,0.000
1587071672.603,419.434,15.137,-282.715,-38.574,0.000
1587071672.607,-617.676,-17.578,-587.402,-52.734,0.000
1587071672.611,-603.516,-38.086,-697.266,-67.383,0.000
1587071672.615,424.316,-12.695,-547.852,-66.406,0.000
1587071672.619,639.160,27.832,-323.730,-46.875,0.000
1587071672.623,-347.168,11.719,-455.078,-30.762,0.000
1587071672.627,-755.371,-12.207,-571.777,-51.270,0.000
1587071672.630,156.738,12.207,-342.773,-55.664,0.000
1587071672.634,742.188,33.691,-169.922,-37.109,0.000
1587071672.638,-43.457,9.766,-381.348,-21.973,0.000
1587071672.642,-792.969,-13.672,-580.566,-27.832,0.000
1587071672.646,-158.691,7.812,-391.602,-53.711,0.000
1587071672.650,712.891,24.902,-237.793,-48.828,0.000
1587071672.654,236.816,-0.977,-437.988,-27.832,0.000
1587071672.658,-725.586,-25.391,-668.945,-40.527,0.000
1587071672.662,-432.129,-7.324,-553.223,-66.406,0.000
1587071672.666,596.191,30.273,-201.172,-58.105,0.000
1587071672.670,511.230,17.090,-308.594,-15.137,0.000
1587071672.673,-525.391,-34.180,-717.773,-10.742,0.000
1587071672.677,-643.066,-19.531,-573.730,-47.363,0.000
1587071672.681,364.746,19.043,-300.781,-53.223,0.000
1587071672.685,672.852,15.137,-273.438,-32.715,0.000
1587071672.689,-275.879,-7.324,-444.824,-18.066,0.000
1587071672.693,-779.785,-14.160,-517.578,-37.598,0.000
1587071672.697,76.172,3.906,-384.277,-68.848,0.000
1587071672.701,750.977,1.953,-391.602,-62.988,0.000
1587071672.705,45.898,-10.742,-486.328,-38.086,0.000
1587071672.709,-774.414,-2.930,-516.602,-60.059,0.000
1587071672.712,-226.562,4.883,-466.309,-84.473,0.000
1587071672.716,710.938,11.230,-354.492,-66.895,0.000
1587071672.720,338.867,10.742,-340.332,-60.059,0.000
1587071672.724,-673.340,-4.395,-509.766,-63.477,0.000
1587071672.728,-483.887,-3.418,-535.156,-69.824,0.000
1587071672.732,559.570,19.531,-358.398,-78.125,0.000
1587071672.736,571.777,16.602,-346.191,-66.895,0.000
1587071672.740,-454.590,0.000,-511.719,-67.383,0.000
1587071672.744,-676.270,-10.742,-629.883,-91.797,0.000
1587071672.748,296.875,-2.930,-509.766,-90.820,0.000
1587071672.752,709.473,8.789,-367.676,-71.289,0.000
1587071672.755,-181.152,-6.836,-516.113,-61.035,0.000
1587071672.759,-782.715,-29.785,-704.102,-84.961,0.000
1587071672.763,-15.625,-20.508,-610.352,-86.914,0.000
1587071672.767,739.746,18.555,-292.969,-89.844,0.000
1587071672.771,120.605,9.277,-379.883,-104.492,0.000
1587071672.775,-781.738,-29.297,-626.465,-108.887,0.000
1587071672.779,-325.195,-23.438,-544.434,-123.047,0.000
1587071672.783,665.527,10.254,-294.922,-119.629,0.000
1587071672.787,356.934,0.000,-347.168,-93.750,0.000
1587071672.791,-593.750,-35.156,-609.375,-89.844,0.000
1587071672.795,-431.641,-32.715,-610.352,-113.281,0.000
1587071672.798,492.188,1.953,-407.715,-114.258,0.000
1587071672.802,588.867,7.324,-356.445,-88.867,0.000
1587071672.806,-404.297,-39.551,-675.781,-83.008,0.000
1587071672.810,-732.422,-40.039,-739.746,-98.145,0.000
1587071672.814,195.801,10.254,-358.887,-93.750,0.000
1587071672.818,698.730,8.301,-318.359,-88.867,0.000
1587071672.822,-121.582,-9.277,-473.633,-98.145,0.000
1587071672.826,-809.082,-17.578,-566.895,-104.492,0.000
1587071672.830,-127.441,-4.395,-438.477,-116.211,0.000
1587071672.834,712.402,10.742,-331.055,-89.355,0.000
1587071672.837,165.527,-4.883,-479.492,-70.312,0.000
1587071672.841,-777.832,-24.902,-660.156,-76.660,0.000
1587071672.845,-383.789,-17.578,-564.453,-63.965,0.000
1587071672.849,614.258,-4.395,-437.012,-66.406,0.000
1587071672.853,419.434,-22.461,-520.996,-78.125,0.000
1587071672.857,-634.766,-31.738,-523.926,-84.473,0.000
1587071672.861,-677.734,-21.484,-483.887,-109.863,0.000
1587071672.865,361.328,-8.301,-371.582,-110.352,0.000
1587071672.869,610.840,-5.371,-366.211,-89.355,0.000
1587071672.873,-389.160,-25.879,-476.562,-97.168,0.000
1587071672.877,-845.703,-41.016,-554.199,-126.465,0.000
1587071672.880,52.246,-26.367,-427.246,-113.281,0.000
1587071672.884,678.711,-5.371,-278.809,-84.473,0.000
1587071672.888,-73.242,-20.996,-487.305,-61.035,0.000
1587071672.892,-847.656,-36.621,-616.211,-78.125,0.000
1587071672.896,-224.121,-39.551,-637.207,-83.008,0.000
1587071672.900,678.711,-20.996,-486.328,-62.988,0.000
1587071672.904,238.770,5.859,-292.480,-56.152,0.000
1587071672.908,-727.539,-20.020,-557.617,-44.434,0.000
1587071672.912,-466.309,-31.250,-592.285,-53.223,0.000
1587071672.916,544.922,1.465,-305.176,-52.734,0.000
1587071672.920,492.676,13.184,-243.164,-25.391,0.000
1587071672.923,-548.828,-20.508,-512.695,-37.598,0.000
1587071672.927,-696.289,-32.715,-594.238,-45.410,0.000
1587071672.931,316.895,-5.371,-384.766,-43.457,0.000
1587071672.935,663.086,1.465,-350.098,-43.945,0.000
1587071672.939,-268.555,-28.320,-593.262,-31.738,0.000
1587071672.943,-810.059,-51.758,-733.398,-43.945,0.000
1587071672.947,18.555,-12.207,-441.895,-62.988,0.000
1587071672.951,725.586,20.020,-252.441,-47.852,0.000
1587071672.955,48.340,-7.324,-449.707,-23.926,0.000
1587071672.959,-789.062,-29.785,-629.395,-30.273,0.000
1587071672.962,-256.348,-6.836,-443.848,-41.992,0.000
1587071672.966,704.102,16.602,-248.535,1.465,0.000
1587071672.970,367.676,-7.324,-379.883,25.391,0.000
1587071672.974,-665.039,-27.344,-551.758,-16.113,0.000
1587071672.978,-521.973,-9.766,-480.957,-35.156,0.000
1587071672.982,533.203,6.348,-340.332,-31.250,0.000
1587071672.986,587.402,-20.020,-506.348,3.906,0.000
1587071672.990,-452.148,-39.062,-674.805,7.324,0.000
1587071672.994,-710.938,-9.766,-491.211,-15.137,0.000
1587071672.998,267.578,6.836,-359.375,-11.230,0.000
1587071673.002,715.332,8.789,-308.105,0.977,0.000
1587071673.005,-168.945,-12.207,-439.453,4.883,0.000
1587071673.009,-808.105,-29.785,-561.035,-5.371,0.000
1587071673.013,-50.293,-14.160,-450.195,-9.766,0.000
1587071673.017,746.094,3.418,-322.754,-5.371,0.000
1587071673.021,156.250,4.395,-354.004,6.836,0.000
1587071673.025,-750.977,-16.113,-571.289,10.254,0.000
1587071673.029,-331.543,-21.973,-591.797,2.441,0.000
1587071673.033,649.414,-7.324,-416.992,24.902,0.000
1587071673.037,424.316,-0.488,-387.207,37.598,0.000
1587071673.041,-598.633,-15.625,-563.477,14.160,0.000
1587071673.045,-560.547,-22.461,-679.688,1.465,0.000
1587071673.048,474.609,7.324,-439.941,3.906,0.000
1587071673.052,634.277,26.367,-208.984,22.461,0.000
1587071673.056,-368.164,-0.977,-433.594,18.066,0.000
1587071673.060,-744.629,-23.438,-574.219,-8.301,0.000
1587071673.064,178.711,0.488,-404.297,-11.230,0.000
1587071673.068,727.051,26.367,-252.441,13.184,0.000
1587071673.072,-78.125,4.395,-408.691,20.020,0.000
1587071673.076,-784.180,-37.598,-703.125,6.348,0.000
1587071673.080,-114.258,-20.020,-558.594,2.441,0.000
1587071673.084,725.586,18.555,-231.934,2.441,0.000
1587071673.087,232.910,-2.930,-398.438,13.184,0.000
1587071673.091,-726.562,-36.133,-632.812,16.113,0.000
1587071673.095,-425.293,-17.578,-491.211,-9.277,0.000
1587071673.099,604.980,20.020,-268.555,-10.254,0.000
1587071673.103,477.539,10.742,-328.125,13.672,0.000
1587071673.107,-556.641,-20.996,-557.617,3.418,0.000
1587071673.111,-626.465,-20.508,-556.641,-19.043,0.000
1587071673.115,386.719,4.883,-325.684,-11.230,0.000
1587071673.119,661.621,9.766,-299.316,2.930,0.000
1587071673.123,-301.758,-23.438,-597.168,5.371,0.000
1587071673.127,-778.320,-34.668,-660.156,-9.766,0.000
1587071673.130,86.914,-7.324,-416.504,-34.668,0.000
1587071673.134,730.469,5.371,-383.789,-15.625,0.000
1587071673.138,-10.742,-10.742,-548.828,3.906,0.000
1587071673.142,-807.617,-17.090,-561.035,0.977,0.000
1587071673.146,-217.773,-11.719,-471.191,-10.254,0.000
1587071673.150,689.453,-11.719,-450.684,-10.254,0.000
1587071673.154,287.598,-19.531,-536.133,10.742,0.000
1587071673.158,-713.379,-21.973,-525.391,-4.395,0.000
1587071673.162,-494.141,-18.555,-505.371,-26.367,0.000
1587071673.166,525.391,-0.488,-374.512,-23.926,0.000
1587071673.170,498.535,-1.465,-399.902,-0.488,0.000
1587071673.173,-496.582,-17.090,-547.363,8.301,0.000
1587071673.177,-678.223,-15.625,-512.695,-15.137,0.000
1587071673.181,316.406,-19.043,-548.340,-13.184,0.000
1587071673.185,692.383,-12.207,-473.145,-1.465,0.000
1587071673.189,-214.844,-0.977,-386.719,-5.859,0.000
1587071673.193,-776.367,-18.066,-562.012,-9.766,0.000
1587071673.197,17.090,-11.230,-455.078,-3.418,0.000
1587071673.201,740.234,15.625,-254.395,4.395,0.000
1587071673.205,93.750,-2.441,-416.992,14.648,0.000
1587071673.209,-781.738,-37.598,-650.391,0.488,0.000
1587071673.212,-285.645,-24.902,-535.645,-38.086,0.000
1587071673.216,686.035,-5.859,-355.469,-52.734,0.000
1587071673.220,371.582,-12.207,-382.324,-28.320,0.000
1587071673.224,-662.109,-41.992,-653.809,-25.879,0.000
1587071673.228,-547.852,-51.270,-694.336,-38.086,0.000
1587071673.232,498.535,-0.488,-304.199,-49.316,0.000
1587071673.236,586.914,12.695,-267.090,-29.785,0.000
1587071673.240,-422.852,-24.414,-575.195,-14.160,0.000
1587071673.244,-708.984,-23.438,-601.562,-38.086,0.000
1587071673.248,234.863,7.812,-328.125,-47.852,0.000
1587071673.252,726.074,13.184,-257.812,-18.066,0.000
1587071673.255,-185.059,-12.695,-467.773,18.066,0.000
1587071673.259,-702.637,-21.484,-576.172,-19.043,0.000
1587071673.263,125.977,-6.348,-469.238,-57.617,0.000
1587071673.267,701.172,9.766,-309.082,-34.668,0.000
1587071673.271,139.648,-14.648,-538.574,-4.883,0.000
1587071673.275,-763.184,-34.668,-733.887,-16.602,0.000
1587071673.279,-375.000,3.906,-451.172,-41.016,0.000
1587071673.283,620.117,19.043,-295.898,-36.133,0.000
1587071673.287,426.270,3.906,-376.953,-25.391,0.000
1587071673.291,-613.281,-16.602,-553.223,-29.297,0.000
1587071673.295,-620.605,-12.695,-532.715,-41.992,0.000
1587071673.298,425.293,6.836,-351.562,-38.086,0.000
1587071673.302,626.953,3.906,-338.867,-25.879,0.000
1587071673.306,-365.234,-13.672,-520.996,-15.137,0.000
1587071673.310,-763.672,-26.855,-648.926,-41.504,0.000
1587071673.314,138.184,-11.719,-539.551,-60.547,0.000
1587071673.318,715.332,-5.859,-454.102,-42.480,0.000
1587071673.322,-69.824,-3.418,-458.008,-28.320,0.000
1587071673.326,-805.176,-15.137,-594.238,-35.156,0.000
1587071673.330,-156.250,-12.207,-564.453,-33.691,0.000
1587071673.334,721.191,18.555,-346.191,-19.531,0.000
1587071673.337,249.512,20.996,-323.730,-11.719,0.000
1587071673.341,-729.980,-7.812,-550.293,-9.277,0.000
1587071673.345,-435.059,-15.625,-522.949,-30.762,0.000
1587071673.349,588.379,11.230,-256.836,-40.527,0.000
1587071673.353,492.676,14.160,-247.559,-5.859,0.000
1587071673.357,-533.691,-21.973,-578.613,1.953,0.000
1587071673.361,-655.273,-31.250,-630.859,-29.785,0.000
1587071673.365,357.422,10.254,-292.969,-26.367,0.000
1587071673.369,678.223,30.762,-166.504,-26.367,0.000
1587071673.373,-271.484,4.883,-403.320,-13.672,0.000
1587071673.377,-776.367,-35.156,-710.938,-7.324,0.000
1587071673.380,76.660,-16.113,-547.852,-16.602,0.000
1587071673.384,750.000,24.902,-239.746,-9.766,0.000
1587071673.388,33.691,0.977,-398.438,-3.906,0.000
1587071673.392,-780.762,-23.926,-586.914,-2.441,0.000
1587071673.396,-210.938,0.000,-434.570,-18.555,0.000
1587071673.400,725.098,26.367,-253.418,-23.438,0.000
1587071673.404,335.938,4.883,-417.480,5.859,0.000
1587071673.408,-675.293,-37.109,-702.637,29.785,0.000
1587071673.412,-473.633,-17.578,-583.008,-11.719,0.000
1587071673.416,575.195,32.227,-236.328,-37.598,0.000
1587071673.420,585.449,21.484,-336.426,-8.789,0.000
1587071673.423,-450.684,-9.766,-621.094,3.418,0.000
1587071673.427,-681.152,-6.836,-525.391,-1.465,0.000
1587071673.431,302.734,12.207,-324.219,-19.531,0.000
1587071673.435,716.797,15.625,-284.668,1.465,0.000
1587071673.439,-185.059,-5.859,-485.352,15.625,0.000
1587071673.443,-786.133,-18.066,-573.242,-4.883,0.000
1587071673.447,-3.906,4.883,-405.273,-4.395,0.000
1587071673.451,749.512,3.906,-442.383,13.672,0.000
1587071673.455,116.211,-10.742,-555.664,32.715,0.000
1587071673.459,-768.066,-11.230,-549.805,20.508,0.000
1587071673.462,-289.062,-5.371,-520.996,16.113,0.000
1587071673.466,683.105,9.766,-397.461,-7.324,0.000
1587071673.470,388.184,13.672,-371.094,-17.090,0.000
1587071673.474,-635.742,-0.977,-538.574,0.488,0.000
1587071673.478,-555.176,-13.672,-590.820,12.695,0.000
1587071673.482,477.051,0.000,-396.973,4.395,0.000
1587071673.486,596.680,12.695,-301.270,-9.277,0.000
1587071673.490,-415.039,-6.348,-491.211,0.977,0.000
1587071673.494,-733.398,-26.855,-625.977,-5.371,0.000
1587071673.498,212.402,-15.625,-520.508,-6.836,0.000
1587071673.502,729.492,4.395,-365.723,-8.789,0.000
1587071673.505,-104.492,-10.254,-493.164,5.371,0.000
1587071673.509,-803.711,-32.715,-719.238,-0.488,0.000
1587071673.513,-84.961,-20.996,-605.469,-16.113,0.000
1587071673.517,745.117,17.578,-283.203,-13.672,0.000
1587071673.521,175.293,10.254,-355.469,13.672,0.000
1587071673.525,-758.301,-23.438,-613.281,16.602,0.000
1587071673.529,-375.488,-13.184,-540.527,-14.160,0.000
1587071673.533,629.395,18.066,-283.203,-17.578,0.000
1587071673.537,451.172,13.184,-340.820,3.906,0.000
1587071673.541,-568.359,-19.531,-587.402,4.395,0.000
1587071673.545,-591.309,-25.879,-640.137,16.113,0.000
1587071673.548,422.852,8.301,-372.070,0.000,0.000
1587071673.552,658.691,27.832,-223.145,-13.672,0.000
1587071673.556,-336.914,-26.367,-640.625,14.648,0.000
1587071673.560,-767.090,-48.340,-770.996,-1.953,0.000
1587071673.564,136.719,11.230,-331.543,-12.695,0.000
1587071673.568,736.816,27.344,-268.555,9.766,0.000
1587071673.572,-29.297,-0.488,-458.008,17.578,0.000
1587071673.576,-795.410,-20.996,-568.848,-8.301,0.000
1587071673.580,-179.199,-5.371,-429.199,-33.691,0.000
1587071673.584,722.168,10.254,-260.742,-25.879,0.000
1587071673.587,269.043,-3.418,-421.875,-4.395,0.000
1587071673.591,-717.773,-24.902,-628.906,0.488,0.000
1587071673.595,-443.848,-20.996,-552.734,11.719,0.000
1587071673.599,581.055,-1.465,-423.340,6.836,0.000
1587071673.603,510.742,-9.277,-453.613,-14.160,0.000
1587071673.607,-522.949,-11.230,-497.559,-13.672,0.000
1587071673.611,-658.691,-6.836,-499.023,-28.809,0.000
1587071673.615,351.562,-4.883,-407.227,-46.387,0.000
1587071673.619,685.059,-0.977,-401.855,-20.020,0.000
1587071673.623,-255.371,-2.930,-456.543,-0.977,0.000
1587071673.627,-785.645,-12.207,-546.875,-21.484,0.000
1587071673.630,51.270,-7.324,-442.383,-26.855,0.000
1587071673.634,746.582,11.719,-284.180,-5.371,0.000
1587071673.638,48.828,-3.906,-472.168,15.625,0.000
1587071673.642,-793.945,-24.902,-621.582,-8.301,0.000
1587071673.646,-268.555,-28.809,-669.434,-6.836,0.000
1587071673.650,675.293,-4.395,-445.312,24.902,0.000
1587071673.654,327.148,19.043,-270.508,4.883,0.000
1587071673.658,-686.035,-11.230,-599.121,-26.855,0.000
1587071673.662,-530.273,-15.625,-609.863,-52.734,0.000
1587071673.666,515.625,14.648,-316.895,-51.270,0.000
1587071673.670,560.547,17.578,-267.578,-18.066,0.000
1587071673.673,-479.980,-16.602,-538.574,-5.859,0.000
1587071673.677,-722.168,-30.273,-644.043,-25.391,0.000
1587071673.681,279.297,2.930,-388.184,-36.133,0.000
1587071673.685,719.727,15.137,-307.617,-21.973,0.000
1587071673.689,-173.340,-13.672,-548.828,-9.766,0.000
1587071673.693,-797.363,-44.434,-728.027,6.836,0.000
1587071673.697,-35.645,-9.277,-435.059,-9.766,0.000
1587071673.701,740.723,27.344,-207.520,-51.270,0.000
1587071673.705,127.930,-3.906,-462.891,-26.855,0.000
1587071673.709,-780.273,-25.879,-656.738,-24.414,0.000
1587071673.712,-332.520,-8.789,-457.031,-47.363,0.000
1587071673.716,656.250,12.207,-265.625,-31.738,0.000
1587071673.720,396.484,0.488,-350.586,-15.625,0.000
1587071673.724,-641.602,-23.926,-538.086,-21.484,0.000
1587071673.728,-582.520,-21.973,-503.906,-32.227,0.000
1587071673.732,458.984,-6.836,-336.914,-32.715,0.000
1587071673.736,612.793,-19.531,-481.934,-2.930,0.000
1587071673.740,-385.742,-39.551,-677.734,9.277,0.000
1587071673.744,-739.746,-20.020,-509.766,-20.020,0.000
1587071673.748,209.473,0.000,-352.051,-40.039,0.000
1587071673.752,732.422,5.859,-304.688,-6.348,0.000
1587071673.755,-104.004,-11.719,-420.898,5.859,0.000
1587071673.759,-794.434,-20.020,-531.738,-12.207,0.000
1587071673.763,-102.051,-7.812,-431.152,-4.883,0.000
1587071673.767,744.141,8.789,-274.902,1.465,0.000
1587071673.771,234.375,6.836,-342.285,14.648,0.000
1587071673.775,-726.562,-16.602,-541.504,-0.488,0.000
1587071673.779,-395.508,-20.020,-556.641,-27.344,0.000
1587071673.783,642.578,-14.648,-448.242,-15.625,0.000
1587071673.787,500.000,0.977,-357.910,7.324,0.000
1587071673.791,-551.270,-0.488,-443.359,6.836,0.000
1587071673.795,-617.188,-24.902,-595.703,-12.207,0.000
1587071673.798,418.457,-6.836,-423.828,-14.648,0.000
1587071673.802,689.941,18.555,-216.797,-1.953,0.000
1587071673.806,-277.832,-5.859,-433.105,7.812,0.000
1587071673.810,-726.074,-26.855,-609.863,-2.441,0.000
1587071673.814,159.668,-4.883,-433.594,3.418,0.000
1587071673.818,784.668,19.531,-221.191,23.926,0.000
1587071673.822,18.066,3.906,-396.484,23.926,0.000
1587071673.826,-761.719,-28.320,-663.086,12.695,0.000
1587071673.830,-151.855,-15.625,-554.199,0.977,0.000
1587071673.834,729.004,18.066,-302.246,-12.207,0.000
1587071673.837,298.828,11.719,-343.262,10.742,0.000
1587071673.841,-696.289,-39.551,-741.699,48.340,0.000
1587071673.845,-443.848,-29.785,-704.590,10.742,0.000
1587071673.849,574.219,26.367,-280.273,-4.395,0.000
1587071673.853,522.461,15.137,-359.375,33.691,0.000
1587071673.857,-485.352,-14.648,-577.637,31.738,0.000
1587071673.861,-654.297,-9.277,-559.082,10.742,0.000
1587071673.865,379.883,18.555,-348.633,6.348,0.000
1587071673.869,700.684,16.602,-336.914,22.949,0.000
1587071673.873,-251.953,-14.648,-609.375,37.598,0.000
1587071673.877,-758.301,-23.438,-688.965,15.137,0.000
1587071673.880,59.082,-6.836,-486.816,-3.418,0.000
1587071673.884,772.461,6.348,-416.992,3.906,0.000
1587071673.888,100.098,-0.977,-568.848,20.508,0.000
1587071673.892,-758.789,-7.324,-611.328,20.020,0.000
1587071673.896,-252.441,8.301,-437.012,4.883,0.000
1587071673.900,717.773,10.742,-394.043,-1.953,0.000
1587071673.904,386.719,-8.301,-526.855,13.672,0.000
1587071673.908,-631.836,-7.324,-526.367,2.930,0.000
1587071673.912,-484.863,-6.836,-556.641,-15.625,0.000
1587071673.916,563.965,-0.977,-418.945,5.371,0.000
1587071673.920,625.000,1.465,-383.789,19.043,0.000
1587071673.923,-432.617,-10.742,-510.254,7.324,0.000
1587071673.927,-726.074,-12.695,-493.652,3.906,0.000
1587071673.931,261.719,-10.742,-501.953,13.184,0.000
1587071673.935,729.980,6.348,-406.738,9.766,0.000
1587071673.939,-148.926,19.043,-338.867,0.977,0.000
1587071673.943,-795.898,-6.348,-535.156,-8.789,0.000
1587071673.947,-50.293,0.977,-454.102,-20.996,0.000
1587071673.951,750.977,33.691,-224.121,-23.926,0.000
1587071673.955,166.992,27.344,-288.574,-38.574,0.000
1587071673.959,-740.723,-4.883,-531.250,-52.734,0.000
1587071673.962,-310.059,3.418,-497.070,-71.777,0.000
1587071673.966,693.359,31.250,-356.934,-71.777,0.000
1587071673.970,459.961,35.645,-365.723,-44.434,0.000
1587071673.974,-579.590,10.254,-592.773,-46.387,0.000
1587071673.978,-558.105,-8.789,-685.059,-70.801,0.000
1587071673.982,506.348,41.992,-253.418,-78.125,0.000
1587071673.986,701.660,77.148,19.043,-54.688,0.000
1587071673.990,-300.293,47.363,-383.301,-63.477,0.000
1587071673.994,-669.434,37.109,-621.094,-88.379,0.000
1587071673.998,266.113,69.336,-309.570,-110.352,0.000
1587071674.002,824.219,87.891,-172.852,-106.934,0.000
1587071674.005,17.578,61.523,-371.094,-72.754,0.000
1587071674.009,-701.660,39.551,-585.449,-104.004,0.000
1587071674.013,-10.254,47.852,-522.461,-110.352,0.000
1587071674.017,869.629,70.312,-276.855,-95.215,0.000
1587071674.021,361.328,48.340,-482.422,-74.707,0.000
1587071674.025,-631.836,23.438,-722.168,-58.105,0.000
1587071674.029,-303.711,46.387,-480.957,-64.941,0.000
1587071674.033,761.230,37.598,-325.684,-52.246,0.000
1587071674.037,638.672,49.316,-314.453,7.324,0.000
1587071674.041,-405.762,58.105,-480.957,26.367,0.000
1587071674.045,-480.957,55.664,-501.465,-56.641,0.000
1587071674.048,565.918,70.312,-370.117,-71.289,0.000
1587071674.052,867.676,71.777,-327.637,-37.109,0.000
1587071674.056,-91.309,54.688,-500.977,-29.785,0.000
1587071674.060,-560.059,33.691,-658.203,-68.359,0.000
1587071674.064,300.293,39.551,-530.273,-105.957,0.000
1587071674.068,954.590,44.434,-420.410,-96.191,0.000
1587071674.072,229.980,41.992,-429.688,-95.215,0.000
1587071674.076,-589.355,30.273,-542.480,-105.957,0.000
1587071674.080,-8.789,33.203,-555.176,-112.305,0.000
1587071674.084,942.871,45.898,-330.566,-83.496,0.000
1587071674.087,532.227,32.715,-283.691,-79.590,0.000
1587071674.091,-517.090,-4.883,-615.723,-105.469,0.000
1587071674.095,-308.105,-7.812,-595.215,-103.027,0.000
1587071674.099,776.367,33.691,-263.672,-101.074,0.000
1587071674.103,748.535,35.645,-281.250,-95.703,0.000
1587071674.107,-321.777,3.418,-578.613,-103.516,0.000
1587071674.111,-479.492,-19.043,-740.723,-110.352,0.000
1587071674.115,535.645,6.836,-523.926,-120.117,0.000
1587071674.119,907.715,49.805,-137.207,-133.789,0.000
1587071674.123,-47.363,17.090,-379.883,-125.488,0.000
1587071674.127,-639.160,-19.043,-622.070,-154.297,0.000
1587071674.130,178.711,4.395,-389.160,-183.105,0.000
1587071674.134,919.922,29.297,-75.195,-146.484,0.000
1587071674.138,239.258,6.836,-240.723,-130.859,0.000
1587071674.142,-669.434,-23.926,-592.285,-156.738,0.000
1587071674.146,-176.270,-8.301,-455.078,-168.945,0.000
1587071674.150,810.547,21.484,-188.477,-144.531,0.000
1587071674.154,483.887,8.789,-293.945,-109.863,0.000
1587071674.158,-580.078,-36.133,-642.578,-125.488,0.000
1587071674.162,-466.797,-17.090,-547.852,-187.012,0.000
1587071674.166,584.961,28.809,-138.672,-169.434,0.000
1587071674.170,661.133,13.184,-87.891,-127.930,0.000
1587071674.173,-383.301,-18.066,-458.008,-145.508,0.000
1587071674.177,-679.199,-15.137,-509.277,-168.457,0.000
1587071674.181,306.152,12.207,-225.098,-189.453,0.000
1587071674.185,778.809,11.719,-121.582,-143.066,0.000
1587071674.189,-113.770,-12.695,-385.254,-153.320,0.000
1587071674.193,-792.480,-20.508,-513.184,-229.492,0.000
1587071674.197,-67.871,-5.371,-353.516,-205.078,0.000
1587071674.201,748.047,-1.465,-294.922,-164.551,0.000
1587071674.205,166.992,-17.090,-426.270,-178.711,0.000
1587071674.209,-771.973,-27.832,-517.090,-203.125,0.000
1587071674.212,-361.328,-11.719,-406.250,-184.570,0.000
1587071674.216,657.227,4.395,-197.266,-141.113,0.000
1587071674.220,449.219,2.441,-139.648,-144.531,0.000
1587071674.224,-613.770,-16.602,-385.254,-167.480,0.000
1587071674.228,-629.395,-28.320,-503.906,-189.941,0.000
1587071674.232,397.949,-5.371,-232.422,-179.199,0.000
1587071674.236,612.305,8.301,117.188,-135.254,0.000
1587071674.240,-403.809,-11.230,-163.086,-156.250,0.000
1587071674.244,-787.109,-28.809,-509.277,-177.246,0.000
1587071674.248,138.672,-11.719,-311.035,-166.016,0.000
1587071674.252,681.641,12.207,15.625,-127.930,0.000
1587071674.255,-99.609,-1.953,-192.871,-160.645,0.000
1587071674.259,-848.145,-30.273,-599.609,-227.051,0.000
1587071674.263,-179.199,-13.672,-472.656,-193.848,0.000
1587071674.267,696.289,28.809,38.574,-140.137,0.000
1587071674.271,197.266,25.879,152.832,-144.043,0.000
1587071674.275,-800.781,-15.137,-386.230,-186.523,0.000
1587071674.279,-505.859,-15.625,-458.984,-190.918,0.000
1587071674.283,546.387,19.043,114.258,-162.109,0.000
1587071674.287,447.266,17.090,236.328,-135.742,0.000
1587071674.291,-599.121,-19.043,-290.039,-172.852,0.000
1587071674.295,-696.289,-27.344,-551.758,-212.402,0.000
1587071674.298,320.312,9.766,-147.949,-166.992,0.000
1587071674.302,638.184,27.832,179.199,-164.551,0.000
1587071674.306,-314.453,-11.719,-243.164,-214.844,0.000
1587071674.310,-826.172,-25.391,-529.785,-257.812,0.000
1587071674.314,20.508,4.395,-187.012,-215.820,0.000
1587071674.318,680.664,17.578,191.406,-173.340,0.000
1587071674.322,-29.785,-24.902,-255.859,-190.918,0.000
1587071674.326,-856.445,-48.828,-671.875,-214.355,0.000
1587071674.330,-302.734,-0.488,-254.395,-250.000,0.000
1587071674.334,625.000,24.902,178.223,-220.703,0.000
1587071674.337,244.141,3.418,28.809,-218.262,0.000
1587071674.341,-751.953,-34.180,-475.098,-279.785,0.000
1587071674.345,-556.152,-34.180,-470.703,-399.902,0.000
1587071674.349,487.305,-4.883,-96.680,-377.930,0.000
1587071674.353,505.859,-6.836,-128.906,-264.160,0.000
1587071674.357,-554.199,-15.625,-399.414,-325.684,0.000
1587071674.361,-788.574,-11.230,-418.945,-326.660,0.000
1587071674.365,216.797,8.301,-207.520,-251.465,0.000
1587071674.369,645.996,20.996,135.742,-195.801,0.000
1587071674.373,-237.305,0.977,-53.711,-222.656,0.000
1587071674.377,-848.145,-24.414,-475.098,-300.293,0.000
1587071674.380,-73.730,-7.324,-318.359,-267.090,0.000
1587071674.384,683.105,14.648,81.055,-206.055,0.000
1587071674.388,55.664,-4.395,-98.633,-190.430,0.000
1587071674.392,-824.707,-27.832,-531.250,-237.305,0.000
1587071674.396,-364.258,-27.832,-576.660,-220.703,0.000
1587071674.400,602.539,-1.465,-180.176,-172.363,0.000
1587071674.404,318.848,20.020,145.996,-216.797,0.000
1587071674.408,-697.266,-9.277,-366.211,-247.070,0.000
1587071674.412,-652.344,-18.066,-537.109,-238.281,0.000
1587071674.416,342.285,21.484,-2.930,-183.594,0.000
1587071674.420,480.469,32.715,244.629,-163.574,0.000
1587071674.423,-527.832,-6.836,-233.398,-196.289,0.000
1587071674.427,-829.590,-25.879,-512.207,-250.000,0.000
1587071674.431,135.254,8.789,-130.371,-244.141,0.000
1587071674.435,622.559,19.043,152.832,-173.828,0.000
1587071674.439,-224.609,-18.066,-285.156,-194.336,0.000
1587071674.443,-889.648,-47.852,-684.082,-255.371,0.000
1587071674.447,-174.805,-8.789,-376.465,-212.402,0.000
1587071674.451,644.531,34.180,183.594,-136.230,0.000
1587071674.455,101.074,2.930,-32.715,-133.301,0.000
1587071674.459,-821.777,-31.250,-573.730,-178.711,0.000
1587071674.462,-438.477,-4.395,-394.531,-196.777,0.000
1587071674.466,569.336,27.832,97.168,-173.828,0.000
1587071674.470,387.207,8.789,38.574,-146.973,0.000
1587071674.474,-644.043,-22.461,-447.754,-178.711,0.000
1587071674.478,-650.391,-14.160,-473.145,-183.105,0.000
1587071674.482,386.719,11.719,-164.062,-127.930,0.000
1587071674.486,603.027,-6.836,-219.238,-89.844,0.000
1587071674.490,-405.273,-36.133,-562.500,-129.883,0.000
1587071674.494,-828.613,-17.578,-472.168,-187.500,0.000
1587071674.498,82.520,7.324,-215.820,-136.719,0.000
1587071674.502,684.082,14.648,76.172,-81.543,0.000
1587071674.505,-86.914,-5.371,-207.520,-117.676,0.000
1587071674.509,-841.309,-20.508,-487.793,-182.617,0.000
1587071674.513,-220.703,-8.789,-347.168,-164.551,0.000
1587071674.517,664.062,12.207,7.812,-102.539,0.000
1587071674.521,218.750,4.883,20.020,-109.863,0.000
1587071674.525,-757.324,-22.461,-448.730,-155.762,0.000
1587071674.529,-498.535,-22.949,-510.254,-167.480,0.000
1587071674.533,545.898,-7.812,-291.504,-125.977,0.000
1587071674.537,500.977,5.371,-193.848,-133.789,0.000
1587071674.541,-543.945,-3.906,-385.254,-207.031,0.000
1587071674.545,-689.941,-22.949,-551.270,-264.160,0.000
1587071674.548,298.340,-0.977,-224.609,-215.820,0.000
1587071674.552,611.328,20.996,195.801,-132.812,0.000
1587071674.556,-302.246,-7.324,-189.453,-159.180,0.000
1587071674.560,-798.828,-38.574,-621.094,-202.148,0.000
1587071674.564,16.113,-12.207,-343.262,-151.367,0.000
1587071674.568,712.891,24.902,172.852,-83.984,0.000
1587071674.572,44.434,0.977,-74.219,-100.098,0.000
1587071674.576,-805.664,-51.270,-701.660,-139.648,0.000
1587071674.580,-284.668,-35.645,-580.078,-115.234,0.000
1587071674.584,660.156,21.484,56.152,-65.918,0.000
1587071674.587,327.148,10.742,4.883,-42.969,0.000
1587071674.591,-675.293,-36.133,-553.223,-126.953,0.000
1587071674.595,-549.805,-30.273,-508.789,-176.270,0.000
1587071674.599,468.262,17.090,5.859,-110.352,0.000
1587071674.603,520.996,12.207,154.785,-92.773,0.000
1587071674.607,-493.164,-32.227,-389.160,-153.320,0.000
1587071674.611,-731.445,-33.203,-567.383,-197.266,0.000
1587071674.615,222.656,4.883,-233.398,-162.109,0.000
1587071674.619,651.367,16.602,35.645,-125.977,0.000
1587071674.623,-203.613,-16.113,-310.547,-162.109,0.000
1587071674.627,-830.078,-38.086,-650.879,-210.938,0.000
1587071674.630,-104.004,-11.719,-427.246,-158.691,0.000
1587071674.634,647.461,11.230,-260.254,-98.633,0.000
1587071674.638,61.523,-13.672,-474.609,-125.488,0.000
1587071674.642,-809.570,-17.578,-561.523,-186.035,0.000
1587071674.646,-366.699,9.766,-378.906,-164.551,0.000
1587071674.650,599.609,26.855,-155.273,-80.078,0.000
1587071674.654,345.215,20.996,-262.207,-70.801,0.000
1587071674.658,-684.082,-5.371,-534.668,-130.859,0.000
1587071674.662,-625.977,-7.812,-524.414,-149.902,0.000
1587071674.666,384.277,9.766,-291.992,-86.426,0.000
1587071674.670,539.551,9.766,-279.297,-43.945,0.000
1587071674.673,-422.363,-11.719,-520.020,-99.609,0.000
1587071674.677,-783.691,-22.461,-591.797,-149.414,0.000
1587071674.681,133.301,-18.066,-528.809,-98.145,0.000
1587071674.685,691.406,1.465,-281.250,-95.703,0.000
1587071674.689,-90.820,10.254,-244.629,-126.465,0.000
1587071674.693,-812.500,-20.508,-602.051,-118.652,0.000
1587071674.697,-134.766,-8.789,-500.000,-68.359,0.000
1587071674.701,708.984,24.902,24.902,29.297,0.000
1587071674.705,195.801,9.277,-41.504,30.762,0.000
1587071674.709,-774.414,-31.738,-611.816,-39.062,0.000
1587071674.712,-394.043,-24.902,-562.012,-0.977,0.000
1587071674.716,624.512,9.277,-247.559,111.328,0.000
1587071674.720,419.434,5.371,-313.965,121.582,0.000
1587071674.724,-559.570,-24.902,-644.043,58.105,0.000
1587071674.728,-621.094,-36.133,-702.148,36.621,0.000
1587071674.732,380.371,16.113,-189.453,101.074,0.000
1587071674.736,635.742,32.715,92.773,164.551,0.000
1587071674.740,-319.336,-15.625,-421.387,122.559,0.000
1587071674.744,-791.016,-30.762,-697.266,52.734,0.000
1587071674.748,79.102,3.418,-346.680,108.398,0.000
1587071674.752,728.027,23.926,-7.812,188.965,0.000
1587071674.755,-7.812,-5.371,-243.164,157.227,0.000
1587071674.759,-797.363,-36.133,-650.391,90.332,0.000
1587071674.763,-220.703,-20.508,-534.668,121.094,0.000
1587071674.767,675.293,15.625,-186.035,187.500,0.000
1587071674.771,261.230,-14.160,-416.504,188.965,0.000
1587071674.775,-735.840,-51.270,-767.090,108.398,0.000
1587071674.779,-503.906,-11.719,-485.840,86.426,0.000
1587071674.783,534.668,20.996,-165.527,170.410,0.000
1587071674.787,494.629,10.742,-191.895,187.500,0.000
1587071674.791,-536.133,-19.531,-493.164,115.234,0.000
1587071674.795,-689.941,-29.297,-584.961,94.238,0.000
1587071674.798,291.016,-7.324,-385.742,158.691,0.000
1587071674.802,640.625,6.836,-214.355,206.543,0.000
1587071674.806,-259.766,-17.578,-442.383,144.531,0.000
1587071674.810,-813.477,-44.922,-694.824,74.707,0.000
1587071674.814,-16.602,-19.531,-509.277,128.906,0.000
1587071674.818,699.707,-4.395,-363.770,192.383,0.000
1587071674.822,64.941,-3.418,-435.059,159.180,0.000
1587071674.826,-781.250,-7.324,-558.105,79.102,0.000
1587071674.830,-308.594,-16.113,-590.332,105.469,0.000
1587071674.834,632.324,4.883,-270.508,184.082,0.000
1587071674.837,317.871,9.277,-182.129,173.340,0.000
1587071674.841,-675.293,-20.996,-566.895,85.938,0.000
1587071674.845,-560.547,-28.320,-632.324,80.566,0.000
1587071674.849,456.543,7.324,-223.145,167.969,0.000
1587071674.853,548.340,16.602,-102.539,177.246,0.000
1587071674.857,-458.984,-20.020,-542.480,127.930,0.000
1587071674.861,-748.535,-51.270,-820.801,103.516,0.000
1587071674.865,203.125,-17.578,-541.992,153.320,0.000
1587071674.869,682.617,35.645,-125.488,191.406,0.000
1587071674.873,-169.434,2.441,-462.402,157.227,0.000
1587071674.877,-815.430,-30.273,-728.516,74.219,0.000
1587071674.880,-80.566,-3.418,-439.453,73.730,0.000
1587071674.884,724.609,26.855,-127.441,168.457,0.000
1587071674.888,154.297,-0.977,-333.008,172.852,0.000
1587071674.892,-759.766,-41.992,-694.824,103.027,0.000
1587071674.896,-353.516,-21.973,-540.527,135.254,0.000
1587071674.900,645.996,11.230,-289.062,240.234,0.000
1587071674.904,437.988,-8.301,-423.828,256.348,0.000
1587071674.908,-597.656,-48.828,-742.188,192.383,0.000
1587071674.912,-580.078,-35.156,-673.340,182.617,0.000
1587071674.916,448.730,7.324,-347.168,242.188,0.000
1587071674.920,633.789,6.348,-370.117,273.926,0.000
1587071674.923,-350.098,-26.367,-723.633,224.121,0.000
1587071674.927,-742.676,-18.066,-715.332,189.453,0.000
1587071674.931,166.016,14.648,-381.348,263.672,0.000
1587071674.935,711.914,12.207,-267.578,312.988,0.000
1587071674.939,-106.934,-13.184,-504.883,246.582,0.000
1587071674.943,-854.492,-28.809,-678.223,161.133,0.000
1587071674.947,-220.215,-11.719,-490.723,191.406,0.000
1587071674.951,630.859,-21.484,-437.988,271.484,0.000
1587071674.955,140.625,-44.922,-594.238,255.371,0.000
1587071674.959,-827.637,-45.898,-632.812,173.340,0.000
1587071674.962,-528.320,-46.387,-602.539,160.645,0.000
1587071674.966,520.996,-28.809,-354.492,239.258,0.000
1587071674.970,416.016,-31.738,-345.703,254.395,0.000
1587071674.974,-668.457,-69.824,-669.922,187.012,0.000
1587071674.978,-795.410,-84.473,-688.965,191.895,0.000
1587071674.982,233.887,-52.734,-388.672,250.000,0.000
1587071674.986,546.875,-42.480,-267.090,269.043,0.000
1587071674.990,-432.617,-69.824,-526.855,227.051,0.000
1587071674.994,-957.520,-91.309,-683.105,153.809,0.000
1587071674.998,-94.238,-79.102,-508.789,155.273,0.000
1587071675.002,579.102,-61.035,-345.703,186.035,0.000
1587071675.005,-157.227,-71.777,-464.355,150.391,0.000
1587071675.009,-979.980,-99.609,-730.957,114.746,0.000
1587071675.013,-404.785,-95.703,-677.734,152.344,0.000
1587071675.017,548.828,-49.316,-255.859,225.098,0.000
1587071675.021,156.738,-54.199,-309.570,238.281,0.000
1587071675.025,-856.934,-96.680,-681.641,189.941,0.000
1587071675.029,-645.508,-95.215,-667.969,185.547,0.000
1587071675.033,438.965,-57.129,-362.305,250.977,0.000
1587071675.037,452.637,-49.805,-334.473,295.898,0.000
1587071675.041,-605.957,-83.496,-635.742,282.715,0.000
1587071675.045,-816.895,-96.191,-750.977,264.160,0.000
1587071675.048,226.562,-53.223,-444.824,287.598,0.000
1587071675.052,674.316,-24.902,-228.516,327.148,0.000
1587071675.056,-271.973,-74.219,-622.559,327.148,0.000
1587071675.060,-883.789,-89.844,-821.777,302.734,0.000
1587071675.064,-58.105,-28.320,-405.273,276.367,0.000
1587071675.068,707.520,-11.719,-256.836,287.109,0.000
1587071675.072,52.734,-33.203,-453.613,307.617,0.000
1587071675.076,-854.980,-47.363,-612.793,249.512,0.000
1587071675.080,-368.164,-31.250,-518.066,216.797,0.000
1587071675.084,632.812,-4.395,-312.988,230.957,0.000
1587071675.087,333.984,-16.113,-407.227,211.914,0.000
1587071675.091,-721.680,-48.340,-691.406,146.973,0.000
1587071675.095,-640.625,-37.598,-667.969,101.562,0.000
1587071675.099,444.824,-0.977,-467.285,111.816,0.000
1587071675.103,559.082,-6.348,-469.727,119.141,0.000
1587071675.107,-506.348,-20.508,-579.590,70.801,0.000
1587071675.111,-827.637,-15.137,-623.047,35.645,0.000
1587071675.115,164.551,1.953,-476.562,40.039,0.000
1587071675.119,693.359,14.160,-360.352,51.270,0.000
1587071675.123,-180.664,-1.465,-471.680,51.758,0.000
1587071675.127,-874.023,-24.902,-666.992,30.273,0.000
1587071675.130,-114.746,-18.555,-535.156,32.715,0.000
1587071675.134,744.629,11.230,-322.266,66.406,0.000
1587071675.138,181.152,1.465,-511.230,67.871,0.000
1587071675.142,-773.438,-27.344,-715.820,41.504,0.000
1587071675.146,-387.695,-35.156,-775.391,26.855,0.000
1587071675.150,640.625,-8.301,-581.543,53.223,0.000
1587071675.154,442.871,24.414,-346.191,60.547,0.000
1587071675.158,-621.094,-5.371,-643.555,37.109,0.000
1587071675.162,-635.254,-16.113,-718.262,38.086,0.000
1587071675.166,427.734,15.137,-424.805,13.672,0.000
1587071675.170,663.574,29.297,-345.215,18.066,0.000
1587071675.173,-359.863,-0.488,-589.355,21.484,0.000
1587071675.177,-799.805,-21.484,-699.219,-3.906,0.000
1587071675.181,129.395,7.324,-460.938,-4.395,0.000
1587071675.185,740.234,17.578,-365.234,1.465,0.000
1587071675.189,-49.805,-13.672,-588.867,12.695,0.000
1587071675.193,-832.520,-45.898,-795.410,2.441,0.000
1587071675.197,-190.430,-11.230,-555.176,-13.184,0.000
1587071675.201,724.121,31.738,-296.875,-10.254,0.000
1587071675.205,248.535,9.277,-502.930,6.836,0.000
1587071675.209,-755.859,-22.949,-830.078,-20.508,0.000
1587071675.212,-471.680,-2.930,-668.457,-43.457,0.000
1587071675.216,585.938,33.691,-333.008,-16.113,0.000
1587071675.220,519.043,23.438,-406.738,5.371,0.000
1587071675.224,-543.457,-6.836,-658.691,-19.531,0.000
1587071675.228,-692.383,-4.395,-673.340,-41.992,0.000
1587071675.232,345.703,22.461,-468.262,-24.414,0.000
1587071675.236,691.406,10.742,-501.465,9.766,0.000
1587071675.240,-267.090,-18.066,-742.188,17.578,0.000
1587071675.244,-799.316,-4.883,-694.336,9.766,0.000
1587071675.248,35.645,16.602,-529.297,50.293,0.000
1587071675.252,739.746,24.902,-365.723,72.754,0.000
1587071675.255,30.273,7.324,-471.191,52.734,0.000
1587071675.259,-829.102,-13.184,-666.504,10.742,0.000
1587071675.263,-274.902,-10.742,-593.750,9.277,0.000
1587071675.267,691.895,9.277,-424.316,54.199,0.000
1587071675.271,331.055,14.648,-431.152,42.969,0.000
1587071675.275,-707.031,-9.766,-664.062,3.906,0.000
1587071675.279,-541.016,-17.090,-720.703,-17.090,0.000
1587071675.283,536.621,-4.395,-563.965,-13.672,0.000
1587071675.287,592.285,16.602,-471.680,1.465,0.000
1587071675.291,-456.543,18.066,-559.082,-26.367,0.000
1587071675.295,-703.125,-2.930,-728.027,-32.715,0.000
1587071675.298,308.105,19.043,-531.738,-7.812,0.000
1587071675.302,756.348,41.504,-322.754,-16.602,0.000
1587071675.306,-148.926,19.531,-524.414,-18.555,0.000
1587071675.310,-779.785,-1.465,-724.609,-25.879,0.000
1587071675.314,6.348,17.090,-564.941,-23.438,0.000
1587071675.318,792.969,41.992,-296.387,-17.090,0.000
1587071675.322,157.227,22.461,-465.332,-14.160,0.000
1587071675.326,-770.020,-28.320,-817.871,-22.949,0.000
1587071675.330,-303.711,-23.926,-730.469,-42.969,0.000
1587071675.334,707.520,28.809,-348.145,-44.922,0.000
1587071675.337,436.523,29.785,-369.629,-25.879,0.000
1587071675.341,-614.746,-13.672,-672.852,-24.902,0.000
1587071675.345,-548.828,-9.766,-661.621,-57.129,0.000
1587071675.349,525.879,33.203,-379.395,-50.781,0.000
1587071675.353,661.133,37.109,-342.773,-8.789,0.000
1587071675.357,-380.859,4.883,-592.773,-23.438,0.000
1587071675.361,-729.492,-5.371,-648.438,-40.527,0.000
1587071675.365,233.398,22.949,-426.270,-16.602,0.000
1587071675.369,779.785,32.715,-318.359,-19.043,0.000
1587071675.373,-65.918,-2.441,-563.477,-4.883,0.000
1587071675.377,-789.062,-20.996,-723.145,-22.949,0.000
1587071675.380,-88.379,7.812,-521.973,-39.062,0.000
1587071675.384,769.043,27.344,-361.328,-8.301,0.000
1587071675.388,225.098,9.277,-512.695,16.602,0.000
1587071675.392,-753.906,0.000,-628.418,-10.254,0.000
1587071675.396,-395.508,9.766,-502.930,-35.156,0.000
1587071675.400,647.461,19.043,-375.000,-12.695,0.000
1587071675.404,502.441,14.648,-447.266,-6.348,0.000
1587071675.408,-570.312,-3.418,-556.641,-25.391,0.000
1587071675.412,-625.000,-9.766,-581.055,-41.504,0.000
1587071675.416,444.336,13.672,-388.184,-29.297,0.000
1587071675.420,692.383,15.137,-393.066,7.812,0.000
1587071675.423,-301.758,-0.977,-568.848,-9.766,0.000
1587071675.427,-760.742,0.000,-584.961,-20.996,0.000
1587071675.431,136.230,-1.953,-575.684,-11.719,0.000
1587071675.435,787.109,9.277,-461.426,-1.465,0.000
1587071675.439,20.020,20.508,-412.598,12.207,0.000
1587071675.443,-786.621,-14.160,-644.043,-10.254,0.000
1587071675.447,-164.062,-10.254,-554.688,-8.789,0.000
1587071675.451,766.113,23.926,-266.113,10.254,0.000
1587071675.455,310.059,16.113,-324.219,36.133,0.000
1587071675.459,-706.055,-16.113,-582.031,14.160,0.000
1587071675.462,-458.984,-19.043,-589.355,-21.484,0.000
1587071675.466,596.191,7.324,-369.629,-5.859,0.000
1587071675.470,558.105,11.230,-351.562,3.906,0.000
1587071675.474,-515.137,-20.996,-623.535,-8.789,0.000
1587071675.478,-684.082,-29.297,-685.059,-36.621,0.000
1587071675.482,355.957,14.648,-353.516,-19.531,0.000
1587071675.486,719.238,33.203,-202.637,-9.766,0.000
1587071675.490,-224.609,-8.301,-569.336,-14.648,0.000
1587071675.494,-781.738,-32.715,-763.184,-27.832,0.000
1587071675.498,41.016,4.395,-394.043,-47.852,0.000
1587071675.502,755.371,15.137,-290.527,-29.297,0.000
1587071675.505,68.359,-10.254,-462.891,-12.695,0.000
1587071675.509,-792.480,-25.391,-624.023,-34.668,0.000
1587071675.513,-256.836,-15.625,-574.707,-39.551,0.000
1587071675.517,730.957,15.137,-299.805,-20.996,0.000
1587071675.521,383.301,-10.254,-510.254,-8.301,0.000
1587071675.525,-687.012,-42.969,-755.859,-3.418,0.000
1587071675.529,-545.410,-6.836,-507.812,-26.855,0.000
1587071675.533,541.016,20.508,-288.086,-41.016,0.000
1587071675.537,619.141,17.090,-298.340,0.488,0.000
1587071675.541,-439.453,-8.789,-523.926,-3.906,0.000
1587071675.545,-732.422,-13.672,-536.133,-52.246,0.000
1587071675.548,260.254,8.301,-341.797,-49.805,0.000
1587071675.552,743.652,14.160,-254.883,-25.391,0.000
1587071675.556,-127.441,-9.277,-435.059,-25.879,0.000
1587071675.560,-798.340,-36.621,-634.766,-44.434,0.000
1587071675.564,-57.617,-17.578,-498.047,-41.504,0.000
1587071675.568,752.441,-7.812,-395.996,-11.230,0.000
1587071675.572,146.973,-13.672,-419.434,-2.930,0.000
1587071675.576,-774.902,-17.090,-523.926,-41.504,0.000
1587071675.580,-345.703,-20.508,-562.988,-46.875,0.000
1587071675.584,677.246,2.930,-328.613,-30.273,0.000
1587071675.587,466.797,7.812,-267.090,-22.949,0.000
1587071675.591,-612.793,-23.438,-542.969,-34.180,0.000
1587071675.595,-604.492,-34.668,-600.098,-46.387,0.000
1587071675.599,480.469,-3.906,-347.656,-27.344,0.000
1587071675.603,610.840,6.836,-286.621,-13.184,0.000
1587071675.607,-419.922,-21.973,-561.523,-16.602,0.000
1587071675.611,-749.512,-44.922,-761.230,-20.020,0.000
1587071675.615,188.477,-21.484,-561.035,-29.297,0.000
1587071675.619,756.348,18.555,-247.070,-36.621,0.000
1587071675.623,-59.570,-10.254,-472.168,-22.949,0.000
1587071675.627,-803.223,-29.785,-636.230,-34.668,0.000
1587071675.630,-143.066,-8.301,-443.359,-45.898,0.000
1587071675.634,735.840,17.090,-184.570,-23.438,0.000
1587071675.638,240.723,2.441,-324.707,-7.324,0.000
1587071675.642,-745.117,-28.320,-620.605,-7.812,0.000
1587071675.646,-423.828,-12.695,-485.352,-32.715,0.000
1587071675.650,631.836,15.625,-252.930,-26.855,0.000
1587071675.654,504.395,6.348,-360.840,1.953,0.000
1587071675.658,-578.613,-37.598,-701.172,-10.742,0.000
1587071675.662,-662.109,-32.227,-655.273,-30.762,0.000
1587071675.666,382.812,16.113,-281.738,-40.527,0.000
1587071675.670,668.945,14.648,-309.082,-31.250,0.000
1587071675.673,-307.617,-15.137,-575.195,-17.578,0.000
1587071675.677,-793.457,-18.555,-606.445,-41.016,0.000
1587071675.681,84.961,-2.441,-479.980,-43.945,0.000
1587071675.685,735.352,10.742,-374.023,-23.438,0.000
1587071675.689,-4.395,3.906,-467.285,-9.277,0.000
1587071675.693,-805.176,-7.812,-552.246,-12.695,0.000
1587071675.697,-225.098,0.488,-442.383,-36.621,0.000
1587071675.701,688.965,-1.465,-400.391,-42.969,0.000
1587071675.705,279.297,-13.184,-508.301,-11.719,0.000
1587071675.709,-731.934,-20.996,-536.621,-41.992,0.000
1587071675.712,-530.273,-24.902,-531.250,-89.844,0.000
1587071675.716,508.301,-21.484,-382.324,-67.871,0.000
1587071675.720,485.840,-18.555,-279.297,-50.781,0.000
1587071675.724,-581.543,-32.715,-458.984,-76.172,0.000
1587071675.728,-774.902,-50.781,-586.914,-90.820,0.000
1587071675.732,248.535,-28.809,-389.648,-85.449,0.000
1587071675.736,640.137,-13.184,-286.621,-68.359,0.000
1587071675.740,-286.621,-36.621,-510.742,-51.758,0.000
1587071675.744,-851.562,-49.805,-643.066,-68.848,0.000
1587071675.748,-22.949,-33.203,-511.719,-68.848,0.000
1587071675.752,721.191,-15.137,-354.980,-37.598,0.000
1587071675.755,46.387,-19.043,-446.289,-20.508,0.000
1587071675.759,-838.379,-42.969,-643.066,-30.273,0.000
1587071675.763,-312.012,-48.340,-630.859,-21.484,0.000
1587071675.767,686.035,-5.371,-286.133,-33.203,0.000
1587071675.771,358.398,4.395,-289.062,-52.246,0.000
1587071675.775,-702.148,-35.156,-621.094,-46.387,0.000
1587071675.779,-581.543,-38.086,-624.512,-50.781,0.000
1587071675.783,494.629,-0.977,-274.902,-45.898,0.000
1587071675.787,589.355,1.953,-234.375,-29.785,0.000
1587071675.791,-479.980,-32.715,-542.969,-21.973,0.000
1587071675.795,-704.590,-43.457,-670.898,-29.297,0.000
1587071675.798,313.477,-13.184,-434.082,-28.809,0.000
1587071675.802,706.543,8.301,-284.668,-19.043,0.000
1587071675.806,-162.598,-29.297,-592.285,-7.812,0.000
1587071675.810,-832.031,-48.340,-737.305,-33.203,0.000
1587071675.814,-81.543,1.953,-386.230,-32.715,0.000
1587071675.818,748.047,19.531,-241.699,-13.184,0.000
1587071675.822,158.691,-0.488,-382.812,-21.973,0.000
1587071675.826,-779.297,-25.391,-567.871,-26.367,0.000
1587071675.830,-368.164,-15.625,-494.141,-42.480,0.000
1587071675.834,651.367,3.418,-317.871,-33.691,0.000
1587071675.837,429.199,-8.301,-399.414,-20.996,0.000
1587071675.841,-629.395,-30.273,-634.277,-27.344,0.000
1587071675.845,-626.465,-29.297,-620.605,-35.645,0.000
1587071675.849,427.246,-4.395,-405.762,-22.461,0.000
1587071675.853,636.230,-9.277,-420.898,4.395,0.000
1587071675.857,-376.953,-25.879,-572.754,2.441,0.000
1587071675.861,-780.762,-17.578,-572.266,-17.578,0.000
1587071675.865,146.484,-0.488,-449.707,-22.461,0.000
1587071675.869,741.699,11.719,-348.633,-20.508,0.000
1587071675.873,-60.547,5.371,-424.805,6.348,0.000
1587071675.877,-812.012,-15.137,-597.168,-12.207,0.000
1587071675.880,-142.578,-7.324,-488.770,-53.223,0.000
1587071675.884,744.141,17.090,-271.973,-16.113,0.000
1587071675.888,244.629,4.883,-407.227,5.371,0.000
1587071675.892,-727.539,-20.508,-650.391,-23.438,0.000
1587071675.896,-431.152,-22.949,-701.172,-36.621,0.000
1587071675.900,602.539,3.906,-463.867,-21.484,0.000
1587071675.904,517.090,31.738,-235.840,-14.160,0.000
1587071675.908,-547.363,-2.930,-541.016,-19.043,0.000
1587071675.912,-647.461,-17.090,-635.254,-27.344,0.000
1587071675.916,393.555,11.230,-389.160,-18.555,0.000
1587071675.920,692.383,28.320,-252.930,-8.789,0.000
1587071675.923,-280.762,8.789,-461.914,-3.418,0.000
1587071675.927,-779.785,-11.719,-609.863,-20.020,0.000
1587071675.931,90.820,8.301,-439.453,-20.996,0.000
1587071675.935,767.090,22.949,-325.195,-2.441,0.000
1587071675.939,29.785,1.953,-460.449,4.883,0.000
1587071675.943,-811.035,-37.109,-674.316,-1.465,0.000
1587071675.947,-235.840,-7.324,-457.520,-33.203,0.000
1587071675.951,713.379,34.668,-174.316,-30.273,0.000
1587071675.955,319.824,8.789,-363.281,-9.766,0.000
1587071675.959,-708.984,-19.043,-616.211,-11.719,0.000
1587071675.962,-499.512,-2.930,-499.512,-34.668,0.000
1587071675.966,558.594,20.508,-243.652,-26.855,0.000
1587071675.970,564.453,13.184,-288.574,-7.812,0.000
1587071675.974,-489.746,-17.578,-600.586,-6.348,0.000
1587071675.978,-709.961,-21.973,-604.004,-22.461,0.000
1587071675.982,298.828,3.418,-358.398,-7.812,0.000
1587071675.986,720.703,-8.301,-394.043,10.742,0.000
1587071675.990,-195.312,-31.250,-621.094,1.465,0.000
1587071675.994,-798.828,-15.137,-538.086,-18.555,0.000
1587071675.998,9.766,4.883,-383.789,-28.809,0.000
1587071676.002,759.766,20.508,-256.836,-15.137,0.000
1587071676.005,112.793,6.836,-334.961,5.371,0.000
1587071676.009,-771.484,-10.742,-518.066,7.812,0.000
1587071676.013,-287.598,0.977,-476.562,-9.766,0.000
1587071676.017,696.289,21.973,-312.012,-9.766,0.000
1587071676.021,405.273,19.043,-297.363,-10.254,0.000
1587071676.025,-639.648,-3.906,-543.945,-25.391,0.000
1587071676.029,-545.410,-10.742,-630.859,-33.203,0.000
1587071676.033,502.441,3.906,-416.992,-35.156,0.000
1587071676.037,597.168,22.461,-338.867,-28.320,0.000
1587071676.041,-432.129,24.414,-471.191,-31.250,0.000
1587071676.045,-751.953,16.113,-585.449,-50.781,0.000
1587071676.048,211.914,25.879,-480.957,-61.035,0.000
1587071676.052,712.891,44.922,-227.051,-53.711,0.000
1587071676.056,-147.949,28.809,-364.746,-52.246,0.000
1587071676.060,-843.262,1.465,-652.344,-69.824,0.000
1587071676.064,-128.418,12.207,-509.277,-90.332,0.000
1587071676.068,705.078,38.574,-250.488,-90.332,0.000
1587071676.072,134.766,24.902,-386.230,-81.055,0.000
1587071676.076,-825.684,-26.855,-752.441,-87.891,0.000
1587071676.080,-434.570,-23.926,-689.941,-90.332,0.000
1587071676.084,583.496,30.762,-213.867,-113.770,0.000
1587071676.087,352.539,20.508,-308.105,-126.953,0.000
1587071676.091,-712.402,-28.320,-680.176,-123.535,0.000
1587071676.095,-723.633,-22.461,-609.863,-137.207,0.000
1587071676.099,337.891,18.555,-306.152,-145.996,0.000
1587071676.103,563.477,21.484,-278.809,-126.953,0.000
1587071676.107,-455.566,-19.043,-561.035,-124.023,0.000
1587071676.111,-877.441,-32.715,-631.348,-149.414,0.000
1587071676.115,40.039,5.859,-392.090,-160.645,0.000
1587071676.119,633.789,14.648,-315.430,-140.137,0.000
1587071676.123,-156.250,-19.531,-547.852,-109.375,0.000
1587071676.127,-903.809,-37.109,-722.168,-133.301,0.000
1587071676.130,-256.348,-16.113,-542.480,-150.391,0.000
1587071676.134,619.141,5.371,-327.148,-130.371,0.000
1587071676.138,154.785,-16.602,-497.070,-126.465,0.000
1587071676.142,-843.262,-28.809,-592.773,-127.441,0.000
1587071676.146,-541.504,-12.695,-502.441,-132.324,0.000
1587071676.150,517.578,-2.441,-413.574,-118.652,0.000
1587071676.154,425.293,-8.301,-419.922,-83.496,0.000
1587071676.158,-629.395,-22.461,-517.090,-69.336,0.000
1587071676.162,-742.188,-27.832,-539.062,-99.121,0.000
1587071676.166,273.438,-17.578,-374.023,-96.680,0.000
1587071676.170,591.309,-13.672,-360.840,-70.312,0.000
1587071676.173,-328.613,-20.508,-519.043,-54.688,0.000
1587071676.177,-833.984,-18.555,-547.852,-69.336,0.000
1587071676.181,31.738,-19.043,-561.035,-57.617,0.000
1587071676.185,725.098,-2.441,-413.574,-16.602,0.000
1587071676.189,23.926,2.930,-347.168,-18.066,0.000
1587071676.193,-815.430,-32.227,-622.559,-21.484,0.000
1587071676.197,-254.883,-17.578,-520.996,-32.227,0.000
1587071676.201,721.680,14.160,-207.520,-18.066,0.000
1587071676.205,311.035,6.348,-272.461,7.812,0.000
1587071676.209,-733.887,-30.273,-590.332,-1.465,0.000
1587071676.212,-484.863,-30.273,-578.613,-6.348,0.000
1587071676.216,575.195,-0.488,-359.375,3.418,0.000
1587071676.220,583.008,1.465,-311.035,29.297,0.000
1587071676.224,-453.125,-26.855,-580.566,37.598,0.000
1587071676.228,-681.641,-47.363,-691.406,7.812,0.000
1587071676.232,319.336,-4.883,-310.059,-9.766,0.000
1587071676.236,752.441,26.855,-56.641,5.371,0.000
1587071676.240,-148.438,-8.301,-396.973,29.785,0.000
1587071676.244,-768.555,-31.738,-649.902,23.926,0.000
1587071676.248,11.719,-4.395,-377.441,14.648,0.000
1587071676.252,792.969,21.484,-139.160,30.273,0.000
1587071676.255,166.504,-5.371,-312.988,46.875,0.000
1587071676.259,-730.957,-34.668,-615.234,33.203,0.000
1587071676.263,-263.184,-23.438,-550.781,18.555,0.000
1587071676.267,721.680,0.488,-316.895,9.766,0.000
1587071676.271,446.777,-18.066,-483.398,34.668,0.000
1587071676.275,-591.797,-38.574,-722.168,46.387,0.000
1587071676.279,-513.672,-3.906,-479.492,8.301,0.000
1587071676.283,550.781,20.508,-270.508,0.977,0.000
1587071676.287,681.641,13.672,-295.410,27.344,0.000
1587071676.291,-340.820,-5.371,-466.797,47.363,0.000
1587071676.295,-689.453,-6.348,-520.996,32.715,0.000
1587071676.298,258.789,8.301,-356.445,13.672,0.000
1587071676.302,796.387,20.020,-251.953,22.461,0.000
1587071676.306,-58.594,8.301,-424.316,29.785,0.000
1587071676.310,-769.531,-17.090,-647.949,24.902,0.000
1587071676.314,-57.129,-3.418,-529.785,20.020,0.000
1587071676.318,769.531,7.812,-350.098,28.320,0.000
1587071676.322,232.422,4.883,-347.656,39.062,0.000
1587071676.326,-707.031,-3.906,-530.762,34.180,0.000
1587071676.330,-355.469,-9.766,-579.590,46.875,0.000
1587071676.334,666.016,15.137,-317.871,28.320,0.000
1587071676.337,491.211,19.043,-254.883,12.207,0.000
1587071676.341,-556.641,-11.719,-508.789,20.508,0.000
1587071676.345,-593.750,-24.414,-590.820,13.184,0.000
1587071676.349,460.938,8.301,-342.285,16.113,0.000
1587071676.353,715.820,24.414,-225.586,22.949,0.000
1587071676.357,-270.996,-6.836,-509.277,42.480,0.000
1587071676.361,-713.379,-39.551,-771.484,28.320,0.000
1587071676.365,172.852,-15.625,-586.426,1.953,0.000
1587071676.369,773.438,29.785,-177.734,15.137,0.000
1587071676.373,-16.602,1.953,-391.602,26.367,0.000
1587071676.377,-793.945,-26.367,-645.020,1.953,0.000
1587071676.380,-165.039,-3.418,-417.480,0.977,0.000
1587071676.384,746.094,20.996,-189.941,10.254,0.000
1587071676.388,278.320,6.348,-371.094,21.484,0.000
1587071676.392,-740.723,-13.672,-614.746,23.438,0.000
1587071676.396,-453.125,1.465,-501.953,14.648,0.000
1587071676.400,605.957,29.297,-264.160,14.648,0.000
1587071676.404,539.551,18.066,-330.078,29.297,0.000
1587071676.408,-510.254,-33.691,-626.953,36.621,0.000
1587071676.412,-648.926,-25.879,-655.273,15.137,0.000
1587071676.416,397.461,28.809,-307.129,10.254,0.000
1587071676.420,744.629,30.762,-201.660,29.785,0.000
1587071676.423,-211.914,-0.488,-538.574,30.762,0.000
1587071676.427,-745.117,-7.812,-595.703,-13.184,0.000
1587071676.431,75.684,17.090,-343.750,-32.715,0.000
1587071676.435,769.043,29.297,-284.668,-6.836,0.000
1587071676.439,70.801,22.461,-442.383,-13.184,0.000
1587071676.443,-798.340,10.742,-568.848,-40.039,0.000
1587071676.447,-237.793,20.020,-504.883,-52.734,0.000
1587071676.451,719.238,29.297,-416.504,-59.082,0.000
1587071676.455,367.676,25.879,-493.652,-45.898,0.000
