timestamps,TP9,AF7,AF8,TP10,Right AUX
1586465451.657,-41.016,-34.668,-253.906,-94.238,0.000
1586465451.661,-158.203,-34.668,-179.199,-29.785,0.000
1586465451.665,-168.945,-35.156,-202.637,-26.367,0.000
1586465451.668,-55.176,-36.133,-256.836,-83.008,0.000
1586465451.672,-26.367,-39.551,-295.898,-103.516,0.000
1586465451.676,-118.652,-41.016,-431.152,-45.898,0.000
1586465451.680,-159.180,-42.969,-789.551,-11.719,0.000
1586465451.684,-75.684,-41.504,-740.723,-72.754,0.000
1586465451.688,-10.254,-35.645,-265.137,-125.000,0.000
1586465451.692,-91.797,-32.227,-247.070,-83.008,0.000
1586465451.696,-173.828,-34.180,-229.492,-37.109,0.000
1586465451.700,-98.633,-31.250,-125.000,-70.312,0.000
1586465451.704,5.859,-32.715,-188.477,-112.793,0.000
1586465451.708,-47.852,-39.062,-405.762,-88.867,0.000
1586465451.711,-166.992,-37.109,-382.812,-35.645,0.000
1586465451.715,-139.160,-34.180,-83.496,-42.969,0.000
1586465451.719,-27.832,-34.668,-137.207,-104.492,0.000
1586465451.723,-26.367,-35.645,-606.445,-108.887,0.000
1586465451.727,-125.000,-33.203,-768.555,-45.410,0.000
1586465451.731,-128.418,-27.832,-192.383,-21.973,0.000
1586465451.735,0.000,-30.273,-6.836,-68.848,0.000
1586465451.739,43.945,-34.180,-519.531,-87.891,0.000
1586465451.743,-50.781,-32.227,-581.543,-36.621,0.000
1586465451.747,-96.680,-30.273,-39.062,10.254,0.000
1586465451.750,-0.488,-33.691,-11.230,-24.414,0.000
1586465451.754,75.195,-30.762,-411.133,-70.312,0.000
1586465451.758,-3.906,-29.297,-446.777,-41.504,0.000
1586465451.762,-97.168,-30.273,-72.266,4.883,0.000
1586465451.766,-34.668,-31.738,-18.555,-19.531,0.000
1586465451.770,75.195,-32.715,-527.344,-76.660,0.000
1586465451.774,25.391,-31.250,-700.195,-62.500,0.000
1586465451.778,-96.680,-35.156,-252.930,-8.789,0.000
1586465451.782,-68.848,-35.156,-118.164,-5.859,0.000
1586465451.786,48.340,-32.715,-642.090,-71.289,0.000
1586465451.790,46.387,-34.180,-662.598,-101.562,0.000
1586465451.793,-69.336,-39.551,-158.203,-49.805,0.000
1586465451.797,-97.656,-43.945,-240.234,-23.926,0.000
1586465451.801,2.441,-41.016,-517.090,-65.430,0.000
1586465451.805,41.016,-36.133,-439.453,-95.215,0.000
1586465451.809,-48.828,-31.738,-222.168,-51.758,0.000
1586465451.813,-108.887,-31.738,-223.145,-9.277,0.000
1586465451.817,-24.902,-34.668,-549.316,-49.316,0.000
1586465451.821,51.270,-33.203,-590.332,-93.262,0.000
1586465451.825,-26.367,-30.762,-242.676,-64.453,0.000
1586465451.829,-136.230,-35.156,-411.621,-23.438,0.000
1586465451.833,-87.402,-32.715,-731.445,-46.387,0.000
1586465451.836,32.715,-28.809,-397.949,-102.051,0.000
1586465451.840,-1.465,-30.762,-291.504,-101.074,0.000
1586465451.844,-121.582,-28.809,-352.051,-41.504,0.000
1586465451.848,-113.281,-28.320,-201.172,-30.762,0.000
1586465451.852,0.977,-26.367,-137.207,-92.773,0.000
1586465451.856,9.766,-26.855,-312.012,-118.164,0.000
1586465451.860,-114.258,-24.902,-521.484,-66.895,0.000
1586465451.864,-151.367,-27.344,-541.504,-49.805,0.000
1586465451.868,-43.945,-27.344,-400.879,-97.656,0.000
1586465451.872,4.883,-27.344,-353.027,-143.066,0.000
1586465451.875,-91.797,-30.273,-745.605,-110.840,0.000
1586465451.879,-164.062,-32.227,-567.383,-70.801,0.000
1586465451.883,-78.125,-36.133,3.418,-105.469,0.000
1586465451.887,9.277,-32.715,-302.734,-142.090,0.000
1586465451.891,-58.105,-27.344,-469.727,-118.652,0.000
1586465451.895,-154.785,-27.832,-140.625,-70.312,0.000
1586465451.899,-108.887,-27.832,56.152,-83.008,0.000
1586465451.903,0.977,-29.297,-236.816,-146.973,0.000
1586465451.907,-19.531,-28.809,-458.496,-142.578,0.000
1586465451.911,-124.512,-28.320,-284.668,-62.500,0.000
1586465451.915,-114.746,-31.250,-266.602,-35.645,0.000
1586465451.918,-16.602,-35.645,-577.637,-93.262,0.000
1586465451.922,-3.906,-30.762,-883.301,-110.352,0.000
1586465451.926,-107.422,-29.785,-365.234,-57.129,0.000
1586465451.930,-147.461,-35.156,83.496,-23.438,0.000
1586465451.934,-49.316,-38.086,-220.215,-57.617,0.000
1586465451.938,15.137,-37.109,-384.766,-86.914,0.000
1586465451.942,-72.754,-34.180,-117.676,-31.250,0.000
1586465451.946,-168.457,-35.645,16.602,19.043,0.000
1586465451.950,-92.285,-34.180,-218.750,-13.184,0.000
1586465451.954,16.602,-31.738,-414.551,-82.031,0.000
1586465451.958,-34.180,-33.691,-466.797,-84.961,0.000
1586465451.961,-142.090,-33.203,-369.629,-27.344,0.000
1586465451.965,-108.887,-32.715,-616.211,-29.785,0.000
1586465451.969,8.789,-33.691,-626.953,-82.031,0.000
1586465451.973,-4.395,-31.250,-222.168,-83.496,0.000
1586465451.977,-124.512,-25.879,-365.723,-26.367,0.000
1586465451.981,-134.277,-26.855,-305.176,-17.090,0.000
1586465451.985,-12.207,-24.414,-131.836,-71.289,0.000
1586465451.989,26.367,-22.461,-158.691,-85.938,0.000
1586465451.993,-83.496,-25.879,-308.105,-26.367,0.000
1586465451.997,-134.766,-24.902,-268.555,2.441,0.000
1586465452.000,-31.250,-27.344,-92.285,-51.270,0.000
1586465452.004,37.598,-31.738,-357.422,-104.492,0.000
1586465452.008,-47.852,-34.668,-726.074,-86.426,0.000
1586465452.012,-133.301,-31.738,-804.688,-34.180,0.000
1586465452.016,-64.941,-32.715,-295.410,-49.316,0.000
1586465452.020,41.504,-37.109,-153.809,-107.422,0.000
1586465452.024,-3.906,-37.109,-464.844,-97.168,0.000
1586465452.028,-114.258,-39.551,-300.781,-46.387,0.000
1586465452.032,-89.355,-41.504,-17.090,-59.082,0.000
1586465452.036,24.414,-40.527,-276.855,-119.141,0.000
1586465452.040,19.531,-38.574,-609.863,-124.512,0.000
1586465452.043,-99.121,-39.062,-352.051,-59.082,0.000
1586465452.047,-123.535,-41.504,-50.293,-37.109,0.000
1586465452.051,-9.766,-43.945,-327.637,-104.492,0.000
1586465452.055,33.203,-41.504,-852.051,-144.531,0.000
1586465452.059,-66.406,-37.109,-709.961,-94.727,0.000
1586465452.063,-126.465,-35.156,-50.781,-51.758,0.000
1586465452.067,-31.738,-35.645,-114.258,-85.449,0.000
1586465452.071,52.734,-33.691,-505.859,-138.672,0.000
1586465452.075,-26.855,-30.273,-399.902,-115.234,0.000
1586465452.079,-126.465,-28.809,-87.891,-55.176,0.000
1586465452.083,-76.172,-28.809,-211.426,-66.895,0.000
1586465452.086,20.020,-30.273,-502.441,-133.789,0.000
1586465452.090,-15.625,-32.715,-416.016,-140.625,0.000
1586465452.094,-125.488,-34.180,-340.332,-74.219,0.000
1586465452.098,-107.422,-31.738,-485.840,-59.082,0.000
1586465452.102,15.625,-30.273,-658.691,-124.023,0.000
1586465452.106,25.879,-29.785,-456.543,-141.602,0.000
1586465452.110,-84.473,-29.785,-150.879,-76.660,0.000
1586465452.114,-110.352,-28.320,-460.449,-43.945,0.000
1586465452.118,-3.906,-25.879,-829.590,-100.586,0.000
1586465452.122,49.316,-22.461,-508.301,-130.371,0.000
1586465452.125,-39.551,-22.949,-285.645,-77.148,0.000
1586465452.129,-106.445,-21.973,-330.566,-30.762,0.000
1586465452.133,-22.461,-19.531,-304.199,-60.547,0.000
1586465452.137,74.219,-22.461,-264.648,-103.516,0.000
1586465452.141,15.625,-27.344,-319.824,-56.152,0.000
1586465452.145,-111.328,-31.738,-447.266,-14.160,0.000
1586465452.149,-90.820,-36.133,-452.148,-55.176,0.000
1586465452.153,31.250,-37.109,-469.238,-105.957,0.000
1586465452.157,4.395,-37.109,-497.070,-101.074,0.000
1586465452.161,-119.141,-38.574,-763.672,-20.996,0.000
1586465452.165,-124.023,-40.527,-614.746,-3.906,0.000
1586465452.168,-14.648,-40.527,-137.695,-67.871,0.000
1586465452.172,9.277,-38.574,-433.594,-79.102,0.000
1586465452.176,-98.633,-44.922,-603.027,-17.578,0.000
1586465452.180,-132.812,-45.898,-191.406,20.996,0.000
1586465452.184,-27.344,-45.410,-23.926,-33.203,0.000
1586465452.188,36.133,-46.387,-432.617,-72.754,0.000
1586465452.192,-51.270,-46.387,-678.711,-26.367,0.000
1586465452.196,-133.301,-44.922,-335.938,21.484,0.000
1586465452.200,-54.199,-40.039,-23.926,-16.602,0.000
1586465452.204,43.945,-37.109,-480.957,-76.172,0.000
1586465452.208,-15.137,-33.691,-855.957,-61.523,0.000
1586465452.211,-120.605,-31.738,-413.574,-15.137,0.000
1586465452.215,-79.102,-34.668,-183.105,-33.691,0.000
1586465452.219,37.598,-29.785,-344.238,-95.703,0.000
1586465452.223,16.602,-31.738,-406.250,-101.562,0.000
1586465452.227,-104.004,-40.039,-179.199,-40.039,0.000
1586465452.231,-117.188,-41.992,-68.848,-21.973,0.000
1586465452.235,-2.441,-36.621,-292.969,-75.684,0.000
1586465452.239,34.668,-38.086,-614.746,-105.469,0.000
1586465452.243,-68.359,-38.574,-434.570,-50.293,0.000
1586465452.247,-112.793,-37.598,-72.266,-6.348,0.000
1586465452.250,-16.113,-39.062,-580.566,-36.621,0.000
1586465452.254,47.363,-36.133,-757.324,-76.172,0.000
1586465452.258,-39.062,-38.086,-220.215,-61.035,0.000
1586465452.262,-127.930,-38.086,-183.594,-8.789,0.000
1586465452.266,-63.477,-34.668,-251.465,-25.879,0.000
1586465452.270,55.176,-33.203,-409.180,-74.707,0.000
1586465452.274,23.926,-30.273,-447.266,-51.758,0.000
1586465452.278,-102.539,-27.832,-278.809,-15.137,0.000
1586465452.282,-109.375,-36.133,-270.020,-53.223,0.000
1586465452.286,-10.742,-42.480,-446.777,-118.164,0.000
1586465452.290,-27.832,-41.504,-488.281,-146.484,0.000
1586465452.293,-157.715,-42.969,-475.586,-125.000,0.000
1586465452.297,-176.758,-41.016,-667.969,-106.934,0.000
1586465452.301,-71.777,-41.992,-282.715,-162.109,0.000
1586465452.305,-29.297,-45.898,-165.039,-191.895,0.000
1586465452.309,-135.742,-42.480,-403.809,-154.297,0.000
1586465452.313,-201.660,-42.480,-232.910,-122.559,0.000
1586465452.317,-102.051,-43.945,21.973,-152.344,0.000
1586465452.321,-11.719,-46.387,-194.824,-188.965,0.000
1586465452.325,-82.031,-47.363,-396.484,-160.645,0.000
1586465452.329,-170.410,-45.898,-284.180,-107.422,0.000
1586465452.333,-100.586,-48.828,-295.898,-109.375,0.000
1586465452.336,8.789,-47.363,-467.285,-160.156,0.000
1586465452.340,-31.250,-42.480,-795.898,-139.648,0.000
1586465452.344,-141.602,-40.039,-600.098,-62.988,0.000
1586465452.348,-122.559,-42.480,80.566,-61.035,0.000
1586465452.352,-6.836,-46.875,-73.242,-122.559,0.000
1586465452.356,1.465,-45.898,-458.984,-137.695,0.000
1586465452.360,-113.770,-41.504,-225.098,-77.637,0.000
1586465452.364,-140.137,-41.016,62.988,-40.527,0.000
1586465452.368,-31.738,-43.945,-206.543,-81.543,0.000
1586465452.372,17.578,-41.992,-462.891,-124.512,0.000
1586465452.375,-75.684,-41.504,-222.168,-83.984,0.000
1586465452.379,-140.137,-41.016,-164.551,-35.156,0.000
1586465452.383,-44.922,-38.086,-502.930,-56.152,0.000
1586465452.387,41.504,-38.086,-929.688,-91.309,0.000
1586465452.391,-28.320,-34.668,-635.742,-58.594,0.000
1586465452.395,-124.023,-30.273,-142.578,9.277,0.000
1586465452.399,-70.312,-29.785,-251.465,-2.441,0.000
1586465452.403,35.156,-30.762,-367.188,-74.707,0.000
1586465452.407,8.789,-27.344,-272.461,-83.984,0.000
1586465452.411,-101.562,-26.855,-137.207,-30.273,0.000
1586465452.415,-96.680,-33.203,-177.246,-15.625,0.000
1586465452.418,23.926,-37.598,-235.352,-62.012,0.000
1586465452.422,39.062,-33.691,-297.852,-86.426,0.000
1586465452.426,-73.242,-31.250,-435.059,-53.711,0.000
1586465452.430,-104.980,-29.297,-739.746,-41.992,0.000
1586465452.434,3.418,-27.832,-720.215,-93.262,0.000
1586465452.438,65.918,-31.250,-298.340,-144.043,0.000
1586465452.442,-28.320,-34.180,-245.605,-109.863,0.000
1586465452.446,-103.027,-34.668,-298.340,-58.105,0.000
1586465452.450,-26.367,-33.203,-262.207,-85.938,0.000
1586465452.454,65.430,-30.273,-168.945,-138.184,0.000
1586465452.458,7.812,-33.203,-324.707,-115.234,0.000
1586465452.461,-98.633,-35.645,-334.961,-53.223,0.000
1586465452.465,-56.641,-35.156,-108.398,-64.941,0.000
1586465452.469,58.105,-37.598,-112.305,-132.812,0.000
1586465452.473,38.086,-39.062,-545.410,-134.766,0.000
1586465452.477,-83.008,-39.062,-745.117,-70.801,0.000
1586465452.481,-96.680,-37.109,-172.852,-46.875,0.000
1586465452.485,21.484,-39.062,-64.453,-100.098,0.000
1586465452.489,52.734,-35.645,-502.441,-125.488,0.000
1586465452.493,-56.152,-31.738,-452.637,-69.824,0.000
1586465452.497,-102.539,-34.180,-6.348,-33.203,0.000
1586465452.500,7.324,-32.715,-62.500,-77.148,0.000
1586465452.504,73.242,-31.250,-569.824,-119.141,0.000
1586465452.508,-16.602,-30.273,-657.227,-86.426,0.000
1586465452.512,-97.656,-28.809,-177.734,-41.016,0.000
1586465452.516,-25.879,-31.738,-57.617,-71.777,0.000
1586465452.520,72.754,-32.715,-544.434,-129.395,0.000
1586465452.524,17.578,-33.203,-787.109,-107.422,0.000
1586465452.528,-94.727,-34.180,-300.293,-46.387,0.000
1586465452.532,-63.477,-28.320,-115.723,-41.016,0.000
1586465452.536,50.781,-22.949,-667.969,-95.703,0.000
1586465452.540,38.574,-24.902,-700.195,-116.699,0.000
1586465452.543,-84.961,-29.297,-244.629,-66.406,0.000
1586465452.547,-110.352,-33.203,-258.789,-41.504,0.000
1586465452.551,4.395,-35.645,-450.684,-86.914,0.000
1586465452.555,49.316,-33.203,-390.137,-108.398,0.000
1586465452.559,-53.711,-31.250,-186.523,-52.246,0.000
1586465452.563,-110.352,-30.762,-270.508,-12.695,0.000
1586465452.567,-22.461,-31.250,-562.012,-51.270,0.000
1586465452.571,55.664,-32.715,-647.949,-96.680,0.000
1586465452.575,-17.090,-31.250,-470.703,-69.336,0.000
1586465452.579,-110.352,-34.668,-444.824,-13.184,0.000
1586465452.583,-52.246,-36.621,-514.160,-42.969,0.000
1586465452.586,58.594,-34.668,-349.121,-108.887,0.000
1586465452.590,22.461,-36.621,-281.738,-100.098,0.000
1586465452.594,-100.098,-37.109,-595.703,-47.363,0.000
1586465452.598,-87.402,-36.133,-773.926,-45.898,0.000
1586465452.602,27.344,-32.227,-369.629,-96.680,0.000
1586465452.606,30.762,-32.715,-394.531,-101.074,0.000
1586465452.610,-95.215,-36.133,-480.469,-42.480,0.000
1586465452.614,-133.789,-40.039,-458.496,-18.066,0.000
1586465452.618,-17.578,-42.969,-390.625,-76.660,0.000
1586465452.622,31.738,-37.598,-381.348,-111.816,0.000
1586465452.625,-66.406,-38.574,-789.551,-61.523,0.000
1586465452.629,-128.906,-36.133,-589.355,-20.020,0.000
1586465452.633,-30.762,-29.785,-67.871,-54.688,0.000
1586465452.637,63.477,-30.273,-349.121,-93.750,0.000
1586465452.641,-24.902,-31.250,-590.332,-72.266,0.000
1586465452.645,-127.930,-27.344,-274.414,-15.137,0.000
1586465452.649,-67.871,-28.809,-8.301,-1.465,0.000
1586465452.653,36.133,-35.156,-340.332,-38.086,0.000
1586465452.657,4.395,-38.086,-594.238,-12.207,0.000
1586465452.661,-114.746,-37.598,-457.520,41.016,0.000
1586465452.665,-107.910,-37.598,-321.289,26.855,0.000
1586465452.668,14.160,-38.086,-555.664,-39.551,0.000
1586465452.672,34.668,-36.621,-856.445,-61.523,0.000
1586465452.676,-70.312,-29.297,-339.844,-6.348,0.000
1586465452.680,-109.375,-30.762,-46.387,31.738,0.000
1586465452.684,-5.859,-36.621,-391.602,-9.277,0.000
1586465452.688,54.688,-35.645,-510.254,-56.152,0.000
1586465452.692,-41.992,-32.227,-253.418,-27.344,0.000
1586465452.696,-120.605,-31.738,-69.336,26.855,0.000
1586465452.700,-42.480,-32.227,-236.816,4.883,0.000
1586465452.704,50.781,-38.574,-378.906,-47.852,0.000
1586465452.708,-10.254,-43.457,-461.426,-34.668,0.000
1586465452.711,-120.117,-43.457,-417.480,13.672,0.000
1586465452.715,-82.031,-43.945,-640.625,5.859,0.000
1586465452.719,29.297,-38.086,-783.691,-47.852,0.000
1586465452.723,10.254,-39.062,-309.082,-50.781,0.000
1586465452.727,-106.445,-39.551,-158.691,10.254,0.000
1586465452.731,-115.234,-38.574,-240.723,16.113,0.000
1586465452.735,-1.465,-39.062,-257.324,-48.828,0.000
1586465452.739,25.391,-35.156,-260.254,-66.406,0.000
1586465452.743,-80.078,-35.645,-429.688,-10.742,0.000
1586465452.747,-125.977,-32.715,-303.223,26.855,0.000
1586465452.750,-27.832,-31.250,-52.246,-13.672,0.000
1586465452.754,36.621,-32.227,-343.262,-50.781,0.000
1586465452.758,-45.898,-30.273,-722.656,9.277,0.000
1586465452.762,-131.348,-28.809,-719.727,105.957,0.000
1586465452.766,-63.965,-25.879,-187.012,122.070,0.000
1586465452.770,43.457,-25.391,-83.496,62.500,0.000
1586465452.774,-8.789,-23.438,-381.836,67.871,0.000
1586465452.778,-117.676,-25.879,-252.930,133.301,0.000
1586465452.782,-84.961,-31.250,39.062,106.934,0.000
1586465452.786,21.973,-37.109,-120.117,53.223,0.000
1586465452.790,11.230,-39.062,-484.375,79.102,0.000
1586465452.793,-96.680,-30.273,-321.777,134.277,0.000
1586465452.797,-107.422,-32.227,-36.133,129.883,0.000
1586465452.801,-2.441,-36.621,-210.938,68.359,0.000
1586465452.805,32.715,-38.086,-756.348,44.922,0.000
1586465452.809,-68.848,-35.156,-753.906,100.586,0.000
1586465452.813,-125.488,-38.574,-80.566,130.859,0.000
1586465452.817,-31.250,-44.922,-121.094,85.449,0.000
1586465452.821,42.969,-37.109,-443.848,49.805,0.000
1586465452.825,-36.621,-35.645,-282.715,92.285,0.000
1586465452.829,-127.441,-41.504,32.227,165.039,0.000
1586465452.833,-64.453,-39.062,-95.215,154.785,0.000
1586465452.836,38.574,-38.086,-508.789,100.098,0.000
1586465452.840,-0.977,-37.598,-409.668,112.305,0.000
1586465452.844,-117.188,-36.621,-62.988,175.781,0.000
1586465452.848,-96.191,-38.086,-326.172,174.805,0.000
1586465452.852,25.391,-40.039,-747.070,102.539,0.000
1586465452.856,26.855,-37.109,-424.316,76.660,0.000
1586465452.860,-83.984,-37.109,-264.648,137.207,0.000
1586465452.864,-101.074,-37.598,-428.223,164.551,0.000
1586465452.868,19.531,-37.109,-404.297,113.770,0.000
1586465452.872,67.383,-36.133,-304.199,80.566,0.000
1586465452.875,-35.156,-34.668,-257.812,118.652,0.000
1586465452.879,-102.051,-37.598,-384.766,155.273,0.000
1586465452.883,-17.090,-36.621,-336.914,110.352,0.000
1586465452.887,64.941,-33.203,-253.906,64.941,0.000
1586465452.891,-6.348,-33.691,-329.102,109.863,0.000
1586465452.895,-103.027,-36.621,-462.891,165.527,0.000
1586465452.899,-54.688,-34.180,-435.547,133.789,0.000
1586465452.903,50.781,-32.715,-212.402,62.988,0.000
1586465452.907,26.367,-36.621,-297.852,63.477,0.000
1586465452.911,-74.707,-38.574,-610.840,137.695,0.000
1586465452.915,-71.777,-26.855,-426.758,142.090,0.000
1586465452.918,27.344,-25.391,-283.203,62.012,0.000
1586465452.922,43.945,-30.762,-622.559,50.293,0.000
1586465452.926,-56.641,-24.414,-473.633,125.488,0.000
1586465452.930,-77.637,-19.531,-7.324,168.457,0.000
1586465452.934,48.340,-17.578,79.590,122.559,0.000
1586465452.938,113.770,-15.625,-294.434,98.633,0.000
1586465452.942,24.902,-13.672,-531.250,148.926,0.000
1586465452.946,-51.270,-16.602,-323.242,179.688,0.000
1586465452.950,26.367,-17.090,-26.855,138.184,0.000
1586465452.954,120.605,-20.020,-408.691,107.910,0.000
1586465452.958,59.082,-18.066,-857.422,145.996,0.000
1586465452.961,-47.363,-7.324,-230.957,184.570,0.000
1586465452.965,-7.812,-13.672,95.703,163.574,0.000
1586465452.969,110.840,-17.090,-314.453,116.699,0.000
1586465452.973,86.426,-10.742,-420.898,110.352,0.000
1586465452.977,-38.574,-14.648,-261.230,137.695,0.000
1586465452.981,-46.875,-19.043,-284.180,125.977,0.000
1586465452.985,69.336,-17.578,-344.727,62.500,0.000
1586465452.989,92.773,-19.531,-523.438,41.016,0.000
1586465452.993,-22.949,-23.926,-406.738,101.562,0.000
1586465452.997,-59.570,-20.020,-39.551,146.484,0.000
1586465453.000,41.992,-19.043,-541.992,105.957,0.000
1586465453.004,103.516,-20.020,-747.070,66.406,0.000
1586465453.008,16.113,-22.949,-150.879,106.934,0.000
1586465453.012,-70.312,-22.461,-96.680,159.668,0.000
1586465453.016,3.418,-20.508,-233.398,130.859,0.000
1586465453.020,100.098,-18.555,-196.289,77.148,0.000
1586465453.024,41.992,-19.043,-82.520,89.844,0.000
1586465453.028,-71.777,-26.855,-139.648,132.324,0.000
1586465453.032,-35.156,-29.297,-311.035,114.258,0.000
1586465453.036,78.613,-25.879,-415.527,54.688,0.000
1586465453.040,63.965,-23.926,-521.484,53.711,0.000
1586465453.043,-54.199,-27.344,-592.773,112.305,0.000
1586465453.047,-73.730,-25.391,-630.859,122.070,0.000
1586465453.051,31.250,-26.855,-311.523,47.363,0.000
1586465453.055,66.406,-29.785,-255.371,11.230,0.000
1586465453.059,-38.574,-29.785,-347.168,55.176,0.000
1586465453.063,-100.098,-32.227,-162.598,88.379,0.000
1586465453.067,0.000,-29.785,1.953,56.641,0.000
1586465453.071,74.707,-28.809,-158.691,18.066,0.000
1586465453.075,-10.254,-27.832,-326.172,48.340,0.000
1586465453.079,-101.074,-27.344,-155.273,90.820,0.000
1586465453.083,-41.016,-31.738,-209.473,57.129,0.000
1586465453.086,67.383,-31.738,-491.211,-2.441,0.000
1586465453.090,23.926,-32.227,-805.176,1.953,0.000
1586465453.094,-94.238,-32.715,-744.629,53.711,0.000
1586465453.098,-66.406,-28.320,-221.680,50.781,0.000
1586465453.102,54.688,-27.344,-254.883,-18.555,0.000
1586465453.106,57.129,-25.879,-458.984,-38.086,0.000
1586465453.110,-62.500,-27.344,-250.977,21.484,0.000
1586465453.114,-90.820,-30.762,-4.883,29.785,0.000
1586465453.118,22.949,-31.250,-202.637,-38.574,0.000
1586465453.122,64.941,-30.762,-478.027,-67.871,0.000
1586465453.125,-38.086,-31.250,-289.551,-34.180,0.000
1586465453.129,-106.445,-32.715,-252.930,1.953,0.000
1586465453.133,-20.020,-35.156,-589.355,-16.602,0.000
1586465453.137,59.570,-34.180,-785.156,-58.594,0.000
1586465453.141,-18.555,-33.203,-356.445,-46.387,0.000
1586465453.145,-117.676,-32.715,64.941,-0.977,0.000
1586465453.149,-62.988,-31.250,-300.781,-18.066,0.000
1586465453.153,48.828,-30.273,-898.438,-66.895,0.000
1586465453.157,14.648,-27.832,-647.949,-55.664,0.000
1586465453.161,-104.492,-28.809,-262.695,0.977,0.000
1586465453.165,-99.609,-27.344,-224.609,0.977,0.000
1586465453.168,15.137,-27.344,-317.383,-64.941,0.000
1586465453.172,29.785,-30.273,-338.379,-86.914,0.000
1586465453.176,-84.473,-31.738,-303.223,-43.457,0.000
1586465453.180,-104.980,-32.715,-647.461,-7.812,0.000
1586465453.184,8.789,-34.180,-720.215,-44.922,0.000
1586465453.188,37.598,-35.156,-303.223,-106.445,0.000
1586465453.192,-81.055,-36.133,-312.988,-93.262,0.000
1586465453.196,-152.344,-35.645,-281.250,-56.641,0.000
1586465453.200,-56.152,-36.133,-133.789,-85.449,0.000
1586465453.204,34.180,-37.598,-168.457,-138.184,0.000
1586465453.208,-34.180,-39.062,-375.000,-108.398,0.000
1586465453.211,-133.789,-43.457,-485.840,-41.992,0.000
1586465453.215,-86.426,-40.527,-330.566,-48.828,0.000
1586465453.219,22.461,-36.621,-229.004,-115.234,0.000
1586465453.223,-4.883,-39.551,-617.676,-120.117,0.000
1586465453.227,-109.863,-37.598,-804.199,-65.430,0.000
1586465453.231,-95.215,-33.203,-286.621,-82.031,0.000
1586465453.235,23.438,-30.273,-138.672,-143.555,0.000
1586465453.239,42.480,-34.180,-529.785,-144.043,0.000
1586465453.243,-68.359,-38.086,-515.625,-101.074,0.000
1586465453.247,-101.562,-35.156,-111.328,-89.844,0.000
1586465453.250,6.348,-34.180,-156.738,-137.207,0.000
1586465453.254,71.289,-31.250,-457.031,-184.082,0.000
1586465453.258,-22.461,-29.785,-458.008,-153.320,0.000
1586465453.262,-119.141,-31.250,-159.668,-89.844,0.000
1586465453.266,-42.969,-31.250,-206.543,-112.305,0.000
1586465453.270,63.477,-28.320,-651.855,-178.223,0.000
1586465453.274,1.953,-28.320,-773.438,-166.992,0.000
1586465453.278,-107.422,-31.250,-390.137,-119.629,0.000
1586465453.282,-72.266,-33.691,-124.023,-130.371,0.000
1586465453.286,36.621,-32.227,-617.188,-186.035,0.000
1586465453.290,22.461,-27.832,-715.820,-206.055,0.000
1586465453.293,-84.961,-28.809,-165.039,-163.574,0.000
1586465453.297,-94.238,-35.645,-145.020,-143.066,0.000
1586465453.301,11.230,-39.551,-386.719,-179.688,0.000
1586465453.305,43.945,-32.715,-400.879,-187.012,0.000
1586465453.309,-67.383,-37.598,-258.789,-129.395,0.000
1586465453.313,-128.906,-45.410,-233.887,-104.492,0.000
1586465453.317,-32.227,-41.504,-505.371,-150.391,0.000
1586465453.321,37.598,-40.039,-562.988,-174.805,0.000
1586465453.325,-48.828,-41.992,-230.469,-146.484,0.000
1586465453.329,-129.395,-43.945,-358.398,-114.746,0.000
1586465453.333,-58.594,-43.945,-746.582,-139.648,0.000
1586465453.336,45.898,-38.086,-389.648,-191.895,0.000
1586465453.340,1.953,-37.598,-198.242,-179.199,0.000
1586465453.344,-105.957,-41.016,-303.711,-109.863,0.000
1586465453.348,-73.242,-38.574,-201.660,-108.398,0.000
1586465453.352,41.992,-36.621,-127.930,-163.086,0.000
1586465453.356,36.133,-40.039,-232.910,-145.508,0.000
1586465453.360,-74.219,-39.062,-304.199,-80.566,0.000
1586465453.364,-92.773,-35.645,-313.965,-49.316,0.000
1586465453.368,13.184,-35.645,-411.621,-83.008,0.000
1586465453.372,52.246,-32.715,-364.258,-111.328,0.000
1586465453.375,-54.688,-35.645,-673.340,-63.477,0.000
1586465453.379,-114.258,-35.156,-595.703,-24.902,0.000
1586465453.383,-19.043,-33.691,-4.395,-64.941,0.000
1586465453.387,59.570,-36.621,-286.621,-112.793,0.000
1586465453.391,-6.348,-35.645,-520.020,-79.590,0.000
1586465453.395,-92.773,-35.645,-140.625,-21.484,0.000
1586465453.399,-41.992,-38.574,62.012,-41.992,0.000
1586465453.403,54.199,-41.504,-328.125,-103.516,0.000
1586465453.407,14.160,-41.504,-555.176,-97.656,0.000
1586465453.411,-104.980,-46.387,-347.168,-46.875,0.000
1586465453.415,-83.984,-41.992,-285.645,-43.945,0.000
1586465453.418,39.551,-36.133,-601.074,-94.727,0.000
1586465453.422,41.992,-39.551,-867.676,-111.328,0.000
1586465453.426,-70.312,-36.133,-340.820,-52.246,0.000
1586465453.430,-93.750,-32.715,57.129,-4.395,0.000
1586465453.434,13.184,-33.203,-231.445,-42.480,0.000
1586465453.438,62.988,-29.297,-433.105,-73.730,0.000
1586465453.442,-29.297,-31.250,-222.656,-32.715,0.000
1586465453.446,-100.586,-33.203,-85.449,-8.301,0.000
1586465453.450,-20.996,-30.762,-287.598,-50.781,0.000
1586465453.454,64.941,-31.250,-428.223,-93.750,0.000
1586465453.458,-6.836,-32.227,-472.656,-68.359,0.000
1586465453.461,-113.770,-35.156,-315.918,-2.930,0.000
1586465453.465,-51.758,-36.133,-597.168,7.324,0.000
1586465453.469,65.918,-32.227,-771.484,-54.688,0.000
1586465453.473,27.832,-32.715,-255.859,-72.266,0.000
1586465453.477,-85.938,-37.109,-179.688,-13.672,0.000
1586465453.481,-83.008,-39.551,-231.934,4.883,0.000
1586465453.485,27.832,-36.133,-253.906,-45.898,0.000
1586465453.489,51.758,-33.691,-246.582,-59.570,0.000
1586465453.493,-67.383,-30.762,-310.059,-17.090,0.000
1586465453.497,-119.141,-34.668,-296.875,-8.789,0.000
1586465453.500,-20.996,-43.457,-143.555,-62.012,0.000
1586465453.504,36.133,-41.992,-431.641,-87.891,0.000
1586465453.508,-47.852,-39.551,-715.820,-23.926,0.000
1586465453.512,-123.535,-40.527,-763.672,41.016,0.000
1586465453.516,-53.711,-37.109,-312.012,17.090,0.000
1586465453.520,37.598,-34.180,-118.652,-34.180,0.000
1586465453.524,-25.879,-38.086,-436.523,-16.113,0.000
1586465453.528,-135.742,-40.527,-336.914,36.621,0.000
1586465453.532,-88.379,-38.574,-12.207,41.016,0.000
1586465453.536,26.367,-36.133,-137.695,-7.324,0.000
1586465453.540,14.648,-31.738,-451.172,-9.766,0.000
1586465453.543,-98.145,-28.809,-316.895,50.781,0.000
1586465453.547,-103.027,-27.832,-63.477,65.430,0.000
1586465453.551,17.578,-26.367,-302.734,10.254,0.000
1586465453.555,40.039,-29.785,-825.684,-12.695,0.000
1586465453.559,-70.801,-27.832,-715.820,34.668,0.000
1586465453.563,-124.512,-22.949,-129.883,49.316,0.000
1586465453.567,-32.227,-26.855,-301.758,-6.348,0.000
1586465453.571,44.434,-32.715,-513.184,-48.828,0.000
1586465453.575,-34.180,-30.762,-336.426,-8.789,0.000
1586465453.579,-120.117,-29.785,-145.508,47.363,0.000
1586465453.583,-50.781,-28.809,-242.188,26.855,0.000
1586465453.586,50.781,-22.949,-551.758,-24.414,0.000
1586465453.590,4.395,-23.926,-393.066,-3.906,0.000
1586465453.594,-101.562,-24.902,-86.914,48.828,0.000
1586465453.598,-71.777,-27.344,-340.332,31.250,0.000
1586465453.602,42.480,-29.297,-818.848,-41.992,0.000
1586465453.606,40.527,-26.367,-545.898,-58.594,0.000
1586465453.610,-77.637,-29.297,-123.047,5.371,0.000
1586465453.614,-94.727,-31.250,-238.770,37.109,0.000
1586465453.618,13.672,-31.250,-361.328,-1.465,0.000
1586465453.622,48.828,-26.855,-285.156,-12.695,0.000
1586465453.625,-59.082,-26.367,-433.105,47.363,0.000
1586465453.629,-119.629,-30.762,-417.969,101.074,0.000
1586465453.633,-20.020,-28.320,-203.613,70.312,0.000
1586465453.637,60.059,-33.203,-192.871,19.043,0.000
1586465453.641,-17.578,-36.621,-307.617,34.668,0.000
1586465453.645,-117.676,-39.551,-458.984,76.660,0.000
1586465453.649,-58.105,-40.039,-487.305,56.641,0.000
1586465453.653,51.758,-36.133,-341.309,-4.883,0.000
1586465453.657,6.348,-36.621,-316.895,0.488,0.000
1586465453.661,-109.863,-33.203,-627.441,67.383,0.000
1586465453.665,-92.285,-30.273,-459.473,70.801,0.000
1586465453.668,26.855,-30.273,-117.188,2.441,0.000
1586465453.672,38.574,-27.344,-333.496,-11.719,0.000
1586465453.676,-79.102,-28.809,-333.496,41.504,0.000
1586465453.680,-109.863,-34.180,-50.781,68.359,0.000
1586465453.684,10.254,-38.086,-209.961,28.320,0.000
1586465453.688,68.848,-35.156,-629.395,-5.859,0.000
1586465453.692,-44.434,-34.180,-729.004,26.367,0.000
1586465453.696,-114.746,-30.273,-393.555,77.148,0.000
1586465453.700,-26.367,-26.855,-116.211,45.410,0.000
1586465453.704,65.918,-29.297,-573.730,-8.301,0.000
1586465453.708,-7.324,-27.832,-878.418,5.371,0.000
1586465453.711,-120.117,-30.762,-302.246,46.875,0.000
1586465453.715,-60.547,-36.133,36.621,45.898,0.000
1586465453.719,52.246,-36.621,-319.336,5.371,0.000
1586465453.723,25.391,-31.250,-492.676,6.836,0.000
1586465453.727,-90.332,-33.203,-163.574,62.012,0.000
1586465453.731,-90.332,-39.551,-34.668,72.754,0.000
1586465453.735,22.461,-39.551,-353.516,11.719,0.000
1586465453.739,34.668,-34.668,-691.406,-0.488,0.000
1586465453.743,-78.125,-34.668,-584.961,52.246,0.000
1586465453.747,-109.863,-37.109,-324.707,72.266,0.000
1586465453.750,-8.789,-33.691,-421.387,23.438,0.000
1586465453.754,43.457,-32.715,-447.754,-21.973,0.000
1586465453.758,-46.875,-34.668,-245.605,3.418,0.000
1586465453.762,-121.094,-32.715,-193.359,38.086,0.000
1586465453.766,-42.480,-34.180,-625.488,0.977,0.000
1586465453.770,49.316,-34.180,-654.785,-52.734,0.000
1586465453.774,-5.371,-30.273,-205.566,-34.668,0.000
1586465453.778,-104.980,-27.344,-199.707,21.484,0.000
1586465453.782,-63.965,-31.250,-266.113,15.137,0.000
1586465453.786,49.805,-35.156,-422.852,-41.992,0.000
1586465453.790,31.738,-33.203,-548.828,-52.246,0.000
1586465453.793,-80.078,-32.227,-633.301,-1.465,0.000
1586465453.797,-87.402,-31.738,-767.090,7.812,0.000
1586465453.801,22.949,-34.180,-543.457,-48.340,0.000
1586465453.805,54.199,-34.180,-420.898,-62.500,0.000
1586465453.809,-61.523,-30.762,-352.051,-8.789,0.000
1586465453.813,-115.723,-35.156,-157.227,19.043,0.000
1586465453.817,-7.812,-33.203,-83.984,-35.645,0.000
1586465453.821,59.082,-31.250,-287.598,-96.191,0.000
1586465453.825,-27.344,-32.715,-406.250,-63.477,0.000
1586465453.829,-114.746,-32.715,-227.539,-2.930,0.000
1586465453.833,-41.504,-38.086,-242.676,-19.531,0.000
1586465453.836,62.012,-38.086,-473.145,-78.125,0.000
1586465453.840,6.836,-36.133,-832.031,-67.871,0.000
1586465453.844,-107.910,-35.645,-619.629,-4.883,0.000
1586465453.848,-78.613,-35.645,40.039,-7.324,0.000
1586465453.852,44.434,-35.645,-194.336,-58.105,0.000
1586465453.856,36.621,-35.156,-473.633,-71.777,0.000
1586465453.860,-78.613,-35.645,-328.125,-24.414,0.000
1586465453.864,-86.914,-32.715,-122.070,0.000,0.000
1586465453.868,29.785,-32.227,-225.098,-50.781,0.000
1586465453.872,64.941,-34.180,-447.266,-81.055,0.000
1586465453.875,-44.434,-29.785,-222.168,-30.273,0.000
1586465453.879,-104.004,-27.344,-161.621,7.812,0.000
1586465453.883,-8.789,-29.297,-459.961,-23.926,0.000
1586465453.887,68.359,-32.715,-808.105,-53.223,0.000
1586465453.891,-11.230,-35.645,-432.129,-13.184,0.000
1586465453.895,-102.051,-37.109,17.578,44.434,0.000
1586465453.899,-41.016,-33.203,-109.375,20.508,0.000
1586465453.903,57.129,-30.273,-249.023,-40.039,0.000
1586465453.907,15.625,-29.297,-170.410,-30.762,0.000
1586465453.911,-102.539,-30.273,-45.898,25.879,0.000
1586465453.915,-91.309,-36.133,-116.699,20.508,0.000
1586465453.918,13.672,-38.574,-335.449,-41.016,0.000
1586465453.922,8.789,-35.156,-441.406,-45.898,0.000
1586465453.926,-102.051,-30.273,-354.004,13.184,0.000
1586465453.930,-128.906,-30.273,-595.703,42.480,0.000
1586465453.934,-24.902,-28.809,-656.250,-8.789,0.000
1586465453.938,26.855,-26.367,-223.633,-40.527,0.000
1586465453.942,-67.383,-30.762,-171.875,7.324,0.000
1586465453.946,-138.672,-32.715,-169.434,55.176,0.000
1586465453.950,-55.176,-32.715,-79.590,30.273,0.000
1586465453.954,26.367,-31.738,-122.559,-25.391,0.000
1586465453.958,-44.922,-29.785,-326.172,-5.371,0.000
1586465453.961,-140.625,-31.250,-300.293,47.852,0.000
1586465453.965,-88.867,-33.691,-61.035,30.273,0.000
1586465453.969,23.438,-31.738,-152.344,-28.809,0.000
1586465453.973,-4.883,-27.832,-562.012,-22.461,0.000
1586465453.977,-117.676,-24.902,-956.055,39.062,0.000
1586465453.981,-111.328,-24.414,-567.383,37.598,0.000
1586465453.985,-4.883,-27.832,-142.578,-18.066,0.000
1586465453.989,0.977,-32.715,-472.656,-41.016,0.000
1586465453.993,-110.352,-36.621,-444.336,6.836,0.000
1586465453.997,-138.672,-31.738,-89.355,35.156,0.000
1586465454.000,-40.039,-32.227,-154.785,-11.719,0.000
1586465454.004,0.000,-36.621,-442.383,-46.387,0.000
1586465454.008,-89.355,-37.598,-416.504,-15.137,0.000
1586465454.012,-139.648,-35.156,-21.484,21.973,0.000
1586465454.016,-45.898,-33.203,-27.344,-23.438,0.000
1586465454.020,49.316,-32.715,-512.695,-84.473,0.000
1586465454.024,-11.230,-31.250,-564.453,-58.594,0.000
1586465454.028,-110.840,-31.250,-84.473,-4.883,0.000
1586465454.032,-61.523,-28.320,58.594,-17.090,0.000
1586465454.036,46.875,-25.391,-614.258,-63.477,0.000
1586465454.040,23.438,-25.879,-810.059,-64.941,0.000
1586465454.043,-86.914,-24.414,-85.449,-10.254,0.000
1586465454.047,-88.379,-23.926,-12.695,3.906,0.000
1586465454.051,24.414,-23.926,-297.852,-62.988,0.000
1586465454.055,48.340,-23.438,-289.062,-98.145,0.000
1586465454.059,-63.477,-30.273,-44.922,-44.434,0.000
1586465454.063,-112.305,-32.227,-35.645,-5.859,0.000
1586465454.067,-7.324,-33.691,-390.137,-55.664,0.000
1586465454.071,43.457,-31.738,-458.984,-104.980,0.000
1586465454.075,-69.336,-30.273,-169.434,-58.105,0.000
1586465454.079,-175.293,-40.527,-275.391,0.000,0.000
1586465454.083,-139.160,-43.945,-647.949,-42.480,0.000
1586465454.086,-28.809,-37.598,-353.027,-100.586,0.000
1586465454.090,-47.363,-38.086,-98.145,-75.684,0.000
1586465454.094,-144.531,-42.969,-211.914,-10.254,0.000
1586465454.098,-96.680,-42.480,-283.203,1.953,0.000
1586465454.102,19.531,-40.527,-169.922,-41.504,0.000
1586465454.106,3.906,-47.363,-229.004,-41.016,0.000
1586465454.110,-108.398,-51.758,-288.086,18.555,0.000
1586465454.114,-117.676,-50.293,-358.887,22.949,0.000
1586465454.118,3.418,-46.875,-355.469,-37.598,0.000
1586465454.122,41.016,-44.922,-229.004,-51.758,0.000
1586465454.125,-63.477,-46.387,-633.789,28.320,0.000
1586465454.129,-113.281,-48.340,-543.457,74.219,0.000
1586465454.133,-14.160,-48.828,-36.133,21.973,0.000
1586465454.137,69.336,-49.316,-305.176,-29.785,0.000
1586465454.141,-0.977,-48.828,-445.312,-15.625,0.000
1586465454.145,-88.867,-45.898,-141.113,19.043,0.000
1586465454.149,-28.809,-43.457,44.922,-13.184,0.000
1586465454.153,62.988,-42.969,-276.855,-56.641,0.000
1586465454.157,21.973,-40.039,-588.379,-29.297,0.000
1586465454.161,-83.496,-39.062,-473.633,32.715,0.000
1586465454.165,-62.988,-45.898,-201.660,37.598,0.000
1586465454.168,52.734,-46.875,-367.188,-8.301,0.000
1586465454.172,44.434,-40.527,-866.699,-7.324,0.000
1586465454.176,-68.848,-39.551,-316.406,46.875,0.000
1586465454.180,-80.566,-38.086,193.359,70.312,0.000
1586465454.184,28.809,-36.621,-146.973,21.484,0.000
1586465454.188,66.895,-34.180,-338.867,-6.348,0.000
1586465454.192,-39.062,-35.156,-156.738,36.621,0.000
1586465454.196,-102.051,-40.039,-30.762,72.266,0.000
1586465454.200,-3.418,-34.180,-196.289,33.691,0.000
1586465454.204,75.195,-34.180,-379.395,-8.789,0.000
1586465454.208,-4.395,-40.039,-462.891,33.691,0.000
1586465454.211,-90.820,-37.109,-371.582,104.004,0.000
1586465454.215,-40.039,-35.156,-645.996,94.727,0.000
1586465454.219,57.617,-35.156,-787.109,33.691,0.000
1586465454.223,36.133,-31.250,-292.969,47.852,0.000
1586465454.227,-78.613,-30.273,-151.367,109.863,0.000
1586465454.231,-67.383,-32.715,-244.141,109.375,0.000
1586465454.235,56.152,-31.738,-260.254,41.992,0.000
1586465454.239,63.965,-32.715,-256.836,24.414,0.000
1586465454.243,-46.875,-33.691,-324.707,90.332,0.000
1586465454.247,-86.914,-30.762,-248.047,118.164,0.000
1586465454.250,10.254,-29.785,-201.172,70.312,0.000
1586465454.254,62.012,-29.785,-498.535,23.438,0.000
1586465454.258,-39.551,-28.320,-732.910,42.969,0.000
1586465454.262,-122.070,-27.344,-778.320,83.496,0.000
1586465454.266,-40.039,-27.344,-344.238,44.922,0.000
1586465454.270,52.246,-32.715,-230.957,0.000,0.000
1586465454.274,-13.184,-32.715,-542.480,35.156,0.000
1586465454.278,-118.164,-32.227,-353.027,91.309,0.000
1586465454.282,-76.660,-36.133,-38.086,79.590,0.000
1586465454.286,36.133,-37.109,-145.020,27.344,0.000
1586465454.290,9.766,-36.621,-430.664,27.344,0.000
1586465454.293,-102.539,-37.109,-312.500,77.148,0.000
1586465454.297,-87.891,-37.109,-80.078,81.055,0.000
1586465454.301,26.855,-33.203,-415.039,24.902,0.000
1586465454.305,32.715,-33.203,-875.977,9.277,0.000
1586465454.309,-75.684,-36.133,-754.883,71.289,0.000
1586465454.313,-118.164,-37.598,-116.211,102.051,0.000
1586465454.317,-11.719,-38.574,-94.727,47.363,0.000
1586465454.321,58.105,-37.109,-433.105,10.254,0.000
1586465454.325,-40.527,-34.180,-328.125,45.410,0.000
1586465454.329,-124.023,-34.180,-78.125,87.891,0.000
1586465454.333,-42.480,-37.109,-260.254,53.711,0.000
1586465454.336,60.059,-36.133,-549.805,-15.625,0.000
1586465454.340,3.906,-33.691,-334.961,-9.766,0.000
1586465454.344,-104.492,-31.250,-52.734,41.992,0.000
1586465454.348,-62.500,-29.785,-336.426,35.645,0.000
1586465454.352,62.988,-30.273,-846.680,-25.391,0.000
1586465454.356,42.969,-25.879,-579.590,-48.340,0.000
1586465454.360,-79.590,-27.832,-125.488,0.488,0.000
1586465454.364,-88.867,-34.180,-157.227,30.762,0.000
1586465454.368,21.484,-35.156,-350.098,-17.090,0.000
1586465454.372,50.293,-32.715,-353.027,-38.086,0.000
1586465454.375,-57.617,-29.297,-212.402,23.438,0.000
1586465454.379,-107.910,-29.785,-256.348,66.406,0.000
1586465454.383,-4.395,-32.227,-346.191,28.320,0.000
1586465454.387,67.871,-30.273,-336.426,-15.625,0.000
1586465454.391,-18.066,-29.297,-425.293,12.207,0.000
1586465454.395,-120.117,-34.668,-502.441,55.176,0.000
1586465454.399,-60.547,-34.668,-459.961,35.156,0.000
1586465454.403,57.129,-30.762,-281.250,-4.395,0.000
1586465454.407,17.578,-31.250,-300.293,16.113,0.000
1586465454.411,-96.680,-29.785,-639.160,83.984,0.000
1586465454.415,-67.383,-27.344,-428.223,99.609,0.000
1586465454.418,50.781,-27.344,-161.133,46.875,0.000
1586465454.422,51.758,-30.273,-512.695,38.086,0.000
1586465454.426,-64.941,-33.203,-499.023,89.844,0.000
1586465454.430,-83.496,-32.715,-120.117,100.098,0.000
1586465454.434,35.156,-32.227,-44.922,33.691,0.000
1586465454.438,75.684,-34.180,-391.602,-5.371,0.000
1586465454.442,-30.762,-34.668,-622.559,36.133,0.000
1586465454.446,-101.562,-38.086,-333.496,65.430,0.000
1586465454.450,-17.578,-39.551,-192.871,38.086,0.000
1586465454.454,68.848,-41.016,-643.066,6.836,0.000
1586465454.458,7.812,-38.574,-856.445,41.992,0.000
1586465454.461,-88.379,-28.320,-264.160,83.496,0.000
1586465454.465,-47.363,-28.320,-5.859,40.527,0.000
1586465454.469,53.711,-30.273,-449.219,-22.949,0.000
1586465454.473,19.531,-28.320,-519.043,-16.602,0.000
1586465454.477,-97.656,-28.809,-153.809,32.715,0.000
1586465454.481,-89.355,-32.227,-58.594,22.949,0.000
1586465454.485,28.809,-32.715,-385.742,-37.598,0.000
1586465454.489,36.133,-33.691,-666.016,-47.363,0.000
1586465454.493,-77.637,-35.645,-530.273,9.277,0.000
1586465454.497,-102.051,-34.668,-159.180,34.668,0.000
1586465454.500,12.695,-37.598,-542.480,-0.488,0.000
1586465454.504,65.430,-35.645,-816.406,-27.832,0.000
1586465454.508,-31.250,-32.715,-439.453,10.742,0.000
1586465454.512,-106.934,-32.715,-395.508,58.105,0.000
1586465454.516,-25.879,-33.203,-371.582,30.273,0.000
1586465454.520,63.477,-32.715,-343.262,-19.531,0.000
1586465454.524,-5.859,-30.762,-226.074,3.906,0.000
1586465454.528,-106.445,-30.762,-197.754,53.711,0.000
1586465454.532,-56.641,-30.273,-223.633,38.086,0.000
1586465454.536,59.570,-28.320,-398.926,-32.227,0.000
1586465454.540,31.738,-26.855,-548.828,-46.875,0.000
1586465454.543,-82.520,-25.879,-538.086,13.184,0.000
1586465454.547,-78.613,-28.320,-708.496,18.066,0.000
1586465454.551,31.738,-32.227,-439.941,-48.828,0.000
1586465454.555,58.105,-31.250,-275.879,-51.758,0.000
1586465454.559,-53.711,-30.273,-450.195,19.531,0.000
1586465454.563,-95.215,-32.227,-302.734,56.641,0.000
1586465454.567,12.695,-37.598,-193.359,12.207,0.000
1586465454.571,68.359,-38.086,-530.762,-37.109,0.000
1586465454.575,-26.855,-37.109,-565.918,-5.371,0.000
1586465454.579,-107.910,-39.062,-189.453,41.016,0.000
1586465454.583,-34.180,-41.504,-286.621,6.348,0.000
1586465454.586,59.570,-43.457,-596.191,-47.852,0.000
1586465454.590,2.441,-41.992,-847.656,-22.949,0.000
1586465454.594,-97.656,-36.621,-654.297,33.691,0.000
1586465454.598,-57.129,-34.668,-59.570,30.762,0.000
1586465454.602,54.199,-39.062,-261.230,-14.648,0.000
1586465454.606,39.551,-39.062,-548.340,-16.602,0.000
1586465454.610,-82.520,-37.109,-296.875,29.297,0.000
1586465454.614,-97.168,-39.551,-24.902,38.086,0.000
1586465454.618,18.555,-41.504,-224.609,-15.625,0.000
1586465454.622,42.480,-43.457,-494.141,-36.621,0.000
1586465454.625,-65.918,-40.039,-383.789,17.578,0.000
1586465454.629,-109.863,-33.203,-336.914,43.945,0.000
1586465454.633,-13.184,-31.250,-575.684,-5.859,0.000
1586465454.637,50.293,-31.250,-860.352,-42.480,0.000
1586465454.641,-41.016,-32.227,-440.918,-11.230,0.000
1586465454.645,-133.301,-32.715,21.973,43.945,0.000
1586465454.649,-66.895,-32.227,-117.676,29.297,0.000
1586465454.653,36.621,-32.715,-276.855,-36.133,0.000
1586465454.657,-16.113,-35.645,-173.340,-37.598,0.000
1586465454.661,-131.836,-33.203,-85.449,23.926,0.000
1586465454.665,-104.004,-31.738,-235.352,12.695,0.000
1586465454.668,10.742,-35.156,-301.758,-55.664,0.000
1586465454.672,5.859,-33.203,-246.582,-52.734,0.000
1586465454.676,-107.422,-32.715,-280.762,0.000,0.000
1586465454.680,-124.023,-36.133,-624.512,6.348,0.000
1586465454.684,-6.348,-34.180,-844.727,-61.035,0.000
1586465454.688,44.434,-31.738,-447.754,-97.656,0.000
1586465454.692,-50.293,-35.156,-227.539,-44.434,0.000
1586465454.696,-111.816,-29.297,-240.234,-1.953,0.000
1586465454.700,-25.879,-20.996,-245.605,-59.570,0.000
1586465454.704,45.410,-21.973,-262.207,-133.789,0.000
1586465454.708,-33.691,-22.461,-348.145,-103.516,0.000
1586465454.711,-133.301,-24.902,-373.047,-52.734,0.000
1586465454.715,-71.289,-27.832,-125.977,-84.473,0.000
1586465454.719,31.738,-26.367,-139.160,-144.043,0.000
1586465454.723,-20.996,-28.809,-587.402,-137.695,0.000
1586465454.727,-122.559,-26.855,-739.258,-82.520,0.000
1586465454.731,-91.309,-20.508,-243.164,-94.238,0.000
1586465454.735,26.855,-23.926,-67.383,-166.016,0.000
1586465454.739,32.227,-24.414,-483.398,-167.480,0.000
1586465454.743,-82.520,-27.344,-587.891,-104.980,0.000
1586465454.747,-106.445,-29.297,-251.465,-98.633,0.000
1586465454.750,1.953,-30.273,-166.992,-157.715,0.000
1586465454.754,52.246,-26.855,-474.609,-184.570,0.000
1586465454.758,-45.898,-22.461,-438.477,-143.555,0.000
1586465454.762,-117.188,-26.855,-72.754,-114.746,0.000
1586465454.766,-35.156,-25.391,-83.008,-160.156,0.000
1586465454.770,49.805,-22.461,-557.617,-209.473,0.000
1586465454.774,-19.043,-25.879,-692.383,-183.105,0.000
1586465454.778,-117.676,-30.273,-227.051,-131.348,0.000
1586465454.782,-63.477,-33.691,-134.766,-145.996,0.000
1586465454.786,37.109,-32.715,-660.156,-189.453,0.000
1586465454.790,4.395,-27.832,-643.066,-159.180,0.000
1586465454.793,-106.445,-26.367,-77.148,-75.684,0.000
1586465454.797,-101.562,-26.855,-58.105,-65.430,0.000
1586465454.801,12.207,-29.297,-444.336,-122.559,0.000
1586465454.805,24.902,-30.762,-587.891,-134.766,0.000
1586465454.809,-94.727,-33.691,-247.070,-86.426,0.000
1586465454.813,-127.441,-37.598,-122.559,-49.805,0.000
1586465454.817,-20.508,-35.645,-452.148,-84.473,0.000
1586465454.821,32.227,-30.762,-558.105,-112.305,0.000
1586465454.825,-55.176,-29.297,-204.590,-60.059,0.000
1586465454.829,-133.789,-34.668,-283.691,-10.254,0.000
1586465454.833,-59.570,-35.645,-659.180,-41.504,0.000
1586465454.836,43.945,-26.855,-359.863,-83.008,0.000
1586465454.840,-10.742,-29.297,-191.895,-52.246,0.000
1586465454.844,-118.164,-30.273,-397.949,-1.465,0.000
1586465454.848,-82.520,-27.344,-335.938,-21.484,0.000
1586465454.852,30.273,-25.391,-151.367,-68.848,0.000
1586465454.856,8.789,-25.879,-206.543,-53.223,0.000
1586465454.860,-117.676,-30.273,-493.164,7.812,0.000
1586465454.864,-119.141,-29.785,-570.312,20.996,0.000
1586465454.868,2.441,-24.414,-426.270,-39.062,0.000
1586465454.872,30.273,-28.320,-450.684,-74.707,0.000
1586465454.875,-81.543,-35.645,-736.816,-33.203,0.000
1586465454.879,-131.348,-28.320,-627.930,-5.371,0.000
1586465454.883,-31.250,-28.320,-47.852,-56.152,0.000
1586465454.887,39.062,-31.250,-207.520,-101.562,0.000
1586465454.891,-42.480,-25.879,-320.312,-64.453,0.000
1586465454.895,-127.930,-25.391,5.859,-16.113,0.000
1586465454.899,-56.641,-28.809,33.691,-46.387,0.000
1586465454.903,47.363,-32.715,-347.168,-98.633,0.000
1586465454.907,-2.930,-34.668,-528.809,-79.590,0.000
1586465454.911,-115.234,-33.203,-427.734,-18.066,0.000
1586465454.915,-85.938,-31.738,-208.008,-23.926,0.000
1586465454.918,28.809,-33.691,-393.066,-74.707,0.000
1586465454.922,20.508,-35.645,-847.656,-65.918,0.000
1586465454.926,-100.098,-32.227,-361.816,-13.672,0.000
1586465454.930,-123.047,-33.691,46.387,-5.859,0.000
1586465454.934,-2.930,-33.691,-249.512,-53.223,0.000
1586465454.938,41.992,-29.297,-477.051,-75.195,0.000
1586465454.942,-67.871,-30.273,-261.230,-33.691,0.000
1586465454.946,-125.977,-32.715,-45.410,-2.441,0.000
1586465454.950,-30.762,-32.227,-236.816,-39.062,0.000
1586465454.954,48.340,-32.227,-483.398,-68.848,0.000
1586465454.958,-31.738,-30.273,-562.500,-37.109,0.000
1586465454.961,-133.301,-32.227,-392.578,-4.395,0.000
1586465454.965,-75.684,-35.645,-638.672,-33.691,0.000
1586465454.969,35.645,-32.227,-830.078,-90.332,0.000
1586465454.973,-6.836,-31.738,-358.398,-89.844,0.000
1586465454.977,-125.488,-36.621,-229.492,-34.668,0.000
1586465454.981,-108.887,-38.574,-386.230,-39.551,0.000
1586465454.985,12.695,-37.598,-358.398,-114.746,0.000
1586465454.989,26.367,-37.598,-207.520,-144.043,0.000
1586465454.993,-83.984,-37.109,-295.410,-96.191,0.000
1586465454.997,-107.422,-40.527,-346.191,-78.125,0.000
1586465455.000,-4.395,-42.480,-221.680,-133.789,0.000
1586465455.004,41.016,-43.457,-446.777,-161.133,0.000
1586465455.008,-54.688,-43.945,-740.234,-117.188,0.000
1586465455.012,-146.484,-38.086,-777.832,-74.707,0.000
1586465455.016,-63.477,-32.227,-426.270,-93.262,0.000
1586465455.020,41.504,-30.762,-257.812,-119.629,0.000
1586465455.024,-28.809,-34.180,-427.734,-76.660,0.000
1586465455.028,-119.141,-36.133,-295.898,-19.531,0.000
1586465455.032,-75.684,-38.086,-40.039,-33.691,0.000
1586465455.036,8.789,-39.062,-225.586,-93.750,0.000
1586465455.040,-30.762,-35.645,-583.008,-92.285,0.000
1586465455.043,-150.879,-33.691,-366.699,-42.969,0.000
1586465455.047,-150.391,-35.156,-30.273,-46.875,0.000
1586465455.051,-27.344,-34.180,-290.527,-100.098,0.000
1586465455.055,-1.465,-35.156,-816.895,-103.516,0.000
1586465455.059,-121.094,-35.156,-732.910,-38.086,0.000
1586465455.063,-155.273,-34.668,-47.363,-5.859,0.000
1586465455.067,-31.250,-37.598,-122.070,-49.805,0.000
1586465455.071,36.133,-34.668,-480.469,-83.496,0.000
1586465455.075,-52.246,-32.227,-319.824,-37.109,0.000
1586465455.079,-127.441,-26.367,-20.508,15.625,0.000
1586465455.083,-50.293,-25.391,-96.680,-10.742,0.000
1586465455.086,42.969,-29.297,-400.391,-66.406,0.000
1586465455.090,-19.531,-30.273,-287.109,-59.082,0.000
1586465455.094,-122.070,-28.320,-95.215,-4.395,0.000
1586465455.098,-82.520,-30.762,-288.086,-27.344,0.000
1586465455.102,27.832,-33.203,-807.129,-107.910,0.000
1586465455.106,8.301,-31.738,-674.316,-110.840,0.000
1586465455.110,-110.840,-29.785,-70.312,-45.410,0.000
1586465455.114,-105.469,-25.879,-224.121,-15.137,0.000
1586465455.118,9.277,-27.832,-452.148,-56.641,0.000
1586465455.122,35.645,-29.785,-214.844,-70.801,0.000
1586465455.125,-70.801,-32.227,-155.762,-6.836,0.000
1586465455.129,-115.234,-33.203,-221.680,42.480,0.000
1586465455.133,-16.113,-34.180,-250.977,20.020,0.000
1586465455.137,43.457,-34.668,-241.211,-8.301,0.000
1586465455.141,-38.086,-32.227,-198.730,27.344,0.000
1586465455.145,-121.094,-31.250,-362.305,77.148,0.000
1586465455.149,-51.758,-27.344,-419.922,51.758,0.000
1586465455.153,45.410,-22.461,-249.023,1.953,0.000
1586465455.157,-9.277,-23.438,-322.266,20.020,0.000
1586465455.161,-118.652,-27.344,-583.496,61.035,0.000
1586465455.165,-80.078,-27.832,-396.484,43.457,0.000
1586465455.168,40.039,-26.367,-47.852,-3.906,0.000
1586465455.172,25.879,-22.949,-260.742,4.883,0.000
1586465455.176,-91.797,-21.484,-308.105,66.895,0.000
1586465455.180,-107.910,-22.949,28.809,75.195,0.000
1586465455.184,5.371,-21.973,39.062,19.043,0.000
1586465455.188,28.809,-27.344,-253.906,-16.602,0.000
1586465455.192,-90.332,-32.227,-506.348,17.578,0.000
1586465455.196,-160.645,-30.762,-252.441,59.082,0.000
1586465455.200,-75.684,-33.203,173.828,17.578,0.000
1586465455.204,2.930,-32.227,-242.676,-21.973,0.000
1586465455.208,-71.289,-31.250,-764.648,20.508,0.000
1586465455.211,-162.109,-30.273,-220.703,56.641,0.000
1586465455.215,-99.121,-31.738,-17.090,21.484,0.000
1586465455.219,3.418,-37.598,-429.199,-37.109,0.000
1586465455.223,-45.410,-38.574,-397.949,-19.531,0.000
1586465455.227,-156.250,-40.039,-17.578,41.992,0.000
1586465455.231,-104.492,-39.062,20.020,52.246,0.000
1586465455.235,9.277,-35.156,-382.812,-20.996,0.000
1586465455.239,-45.410,-33.203,-666.992,-89.844,0.000
1586465455.243,-192.383,-37.598,-420.898,-62.012,0.000
1586465455.247,-222.168,-40.039,-41.992,-41.016,0.000
1586465455.250,-125.000,-42.480,-559.570,-97.656,0.000
1586465455.254,-94.727,-46.875,-828.125,-144.531,0.000
1586465455.258,-206.543,-44.434,-209.473,-114.258,0.000
1586465455.262,-295.898,-46.875,-111.816,-94.727,0.000
1586465455.266,-218.750,-48.828,-347.168,-147.461,0.000
1586465455.270,-141.113,-43.457,-337.891,-204.590,0.000
1586465455.274,-221.191,-50.781,-425.781,-185.547,0.000
1586465455.278,-312.500,-55.176,-532.227,-140.625,0.000
1586465455.282,-251.953,-55.176,-382.324,-163.086,0.000
1586465455.286,-131.348,-55.176,-556.152,-205.566,0.000
1586465455.290,-145.996,-51.758,-525.391,-193.359,0.000
1586465455.293,-246.582,-55.176,-406.738,-142.578,0.000
1586465455.297,-223.633,-54.199,-737.305,-129.883,0.000
1586465455.301,-95.215,-49.805,-475.098,-170.410,0.000
1586465455.305,-76.660,-53.711,-224.609,-176.758,0.000
1586465455.309,-184.570,-52.734,-355.469,-111.328,0.000
1586465455.313,-209.961,-44.434,-272.461,-73.242,0.000
1586465455.317,-94.727,-44.434,-120.117,-119.141,0.000
1586465455.321,-30.762,-47.852,-307.129,-161.133,0.000
1586465455.325,-132.812,-47.852,-446.777,-103.516,0.000
1586465455.329,-192.383,-48.828,-354.004,-33.203,0.000
1586465455.333,-88.867,-47.852,-499.023,-51.270,0.000
1586465455.336,-1.953,-45.410,-647.461,-72.754,0.000
1586465455.340,-56.152,-45.410,-873.535,-22.949,0.000
1586465455.344,-157.227,-46.387,-688.965,45.410,0.000
1586465455.348,-99.609,-43.457,-93.750,41.016,0.000
1586465455.352,23.926,-39.062,-264.160,-12.695,0.000
1586465455.356,-0.488,-41.504,-501.465,-20.996,0.000
1586465455.360,-120.605,-43.457,-217.773,33.203,0.000
1586465455.364,-125.488,-45.898,79.590,33.691,0.000
1586465455.368,-6.348,-48.340,-160.156,-33.691,0.000
1586465455.372,23.438,-48.340,-466.797,-65.430,0.000
1586465455.375,-83.984,-47.363,-244.141,-16.113,0.000
1586465455.379,-121.094,-45.410,-219.727,20.508,0.000
1586465455.383,-12.207,-41.016,-543.457,-24.414,0.000
1586465455.387,42.969,-35.645,-769.531,-62.500,0.000
1586465455.391,-52.734,-31.738,-517.090,-17.578,0.000
1586465455.395,-130.371,-33.203,-154.297,35.156,0.000
1586465455.399,-56.641,-34.180,-354.004,10.742,0.000
1586465455.403,36.133,-36.621,-637.207,-41.992,0.000
1586465455.407,-15.625,-38.574,-306.641,-26.855,0.000
1586465455.411,-116.211,-35.645,-80.566,37.598,0.000
1586465455.415,-81.543,-34.668,-216.797,22.949,0.000
1586465455.418,25.879,-35.156,-336.914,-49.805,0.000
1586465455.422,11.230,-35.645,-260.254,-56.641,0.000
1586465455.426,-96.680,-34.668,-277.832,7.812,0.000
1586465455.430,-103.027,-34.668,-645.996,32.227,0.000
1586465455.434,2.441,-34.668,-756.836,-21.484,0.000
1586465455.438,35.645,-33.691,-290.039,-44.434,0.000
1586465455.442,-63.965,-39.062,-217.773,13.184,0.000
1586465455.446,-111.328,-35.645,-197.754,48.340,0.000
1586465455.450,-9.277,-30.762,-227.051,5.859,0.000
1586465455.454,60.547,-31.738,-347.656,-31.250,0.000
1586465455.458,-21.484,-35.156,-361.816,-4.395,0.000
1586465455.461,-109.375,-37.109,-301.758,47.363,0.000
1586465455.465,-57.617,-42.969,-81.055,24.902,0.000
1586465455.469,35.156,-44.922,-137.207,-31.250,0.000
1586465455.473,-3.418,-44.922,-512.695,-9.277,0.000
1586465455.477,-111.816,-43.457,-772.949,52.246,0.000
1586465455.481,-90.820,-41.016,-315.918,47.852,0.000
1586465455.485,20.508,-41.016,-39.551,5.859,0.000
1586465455.489,21.973,-39.062,-433.105,19.531,0.000
1586465455.493,-89.355,-41.016,-403.809,80.078,0.000
1586465455.497,-117.188,-39.551,100.098,90.332,0.000
1586465455.500,-12.207,-37.598,63.965,30.273,0.000
1586465455.504,24.414,-40.039,-329.590,-5.371,0.000
1586465455.508,-77.148,-37.598,-355.469,39.551,0.000
1586465455.512,-139.160,-33.203,-118.652,80.566,0.000
1586465455.516,-49.805,-34.668,-27.344,42.480,0.000
1586465455.520,30.273,-37.598,-437.500,-7.324,0.000
1586465455.524,-54.199,-36.133,-618.652,14.648,0.000
1586465455.528,-146.484,-34.668,-132.324,77.637,0.000
1586465455.532,-83.008,-34.668,51.758,58.105,0.000
1586465455.536,21.973,-36.621,-539.551,-10.742,0.000
1586465455.540,-14.648,-36.621,-614.258,0.488,0.000
1586465455.543,-120.117,-36.133,5.371,71.289,0.000
1586465455.547,-101.562,-34.180,-3.906,79.102,0.000
1586465455.551,10.742,-35.645,-272.949,14.160,0.000
1586465455.555,20.508,-34.668,-256.836,6.348,0.000
1586465455.559,-100.098,-32.715,-17.090,70.312,0.000
1586465455.563,-115.234,-33.691,-53.223,78.125,0.000
1586465455.567,-0.488,-31.738,-467.285,18.555,0.000
1586465455.571,29.785,-26.855,-645.996,0.000,0.000
1586465455.575,-64.453,-26.855,-403.320,37.109,0.000
1586465455.579,-140.625,-31.250,-282.715,73.242,0.000
1586465455.583,-66.406,-29.297,-593.750,41.016,0.000
1586465455.586,19.043,-25.391,-373.047,-13.672,0.000
1586465455.590,-49.805,-34.180,-96.680,3.418,0.000
1586465455.594,-148.438,-37.109,-130.859,64.453,0.000
1586465455.598,-95.703,-33.203,-76.172,63.965,0.000
1586465455.602,16.113,-35.156,-68.848,21.973,0.000
1586465455.606,-15.137,-33.203,-226.074,31.250,0.000
1586465455.610,-151.367,-30.273,-278.809,69.824,0.000
1586465455.614,-166.504,-32.227,-335.938,62.012,0.000
1586465455.618,-54.199,-30.762,-356.445,0.000,0.000
1586465455.622,-27.344,-27.832,-167.969,-33.203,0.000
1586465455.625,-142.090,-32.227,-571.289,16.113,0.000
1586465455.629,-184.082,-26.367,-632.324,47.363,0.000
1586465455.633,-67.383,-18.066,15.137,-9.766,0.000
1586465455.637,-8.301,-27.344,-140.625,-61.035,0.000
1586465455.641,-99.609,-30.762,-301.270,-20.020,0.000
1586465455.645,-168.457,-24.902,-3.906,30.762,0.000
1586465455.649,-91.309,-26.367,96.680,-2.930,0.000
1586465455.653,8.789,-27.832,-251.465,-51.758,0.000
1586465455.657,-47.363,-29.785,-436.035,-18.066,0.000
1586465455.661,-169.922,-30.762,-298.828,39.062,0.000
1586465455.665,-138.184,-33.203,-161.621,10.742,0.000
1586465455.668,-23.438,-40.039,-315.918,-45.898,0.000
1586465455.672,-22.949,-39.062,-751.465,-25.391,0.000
1586465455.676,-123.535,-40.039,-273.438,43.945,0.000
1586465455.680,-125.977,-41.016,269.531,60.059,0.000
1586465455.684,-12.695,-38.086,-91.309,1.953,0.000
1586465455.688,12.207,-34.180,-530.762,-19.531,0.000
1586465455.692,-91.309,-33.691,-180.664,41.992,0.000
1586465455.696,-135.254,-38.574,142.578,82.031,0.000
1586465455.700,-27.832,-38.574,-115.234,35.645,0.000
1586465455.704,44.922,-34.668,-286.621,-5.859,0.000
1586465455.708,-48.340,-33.691,-303.223,27.832,0.000
1586465455.711,-137.695,-36.621,-155.762,72.754,0.000
1586465455.715,-64.453,-36.621,-440.918,56.152,0.000
1586465455.719,31.738,-34.668,-676.270,11.719,0.000
1586465455.723,-20.020,-33.203,-179.199,21.484,0.000
1586465455.727,-122.070,-33.691,5.859,80.078,0.000
1586465455.731,-83.984,-31.250,-33.691,79.102,0.000
1586465455.735,32.715,-34.668,-74.219,9.766,0.000
1586465455.739,26.367,-38.086,-38.574,3.906,0.000
1586465455.743,-94.727,-36.621,-104.492,66.895,0.000
1586465455.747,-112.305,-38.574,-277.832,76.172,0.000
1586465455.750,5.371,-39.551,-227.051,22.461,0.000
1586465455.754,44.922,-36.133,-356.445,-1.465,0.000
1586465455.758,-58.594,-34.668,-515.625,34.180,0.000
1586465455.762,-116.211,-32.715,-664.062,69.336,0.000
1586465455.766,-31.250,-32.715,-350.586,30.273,0.000
1586465455.770,45.410,-37.598,-101.562,-14.160,0.000
1586465455.774,-26.855,-35.156,-346.191,29.297,0.000
1586465455.778,-119.629,-31.738,-210.449,74.707,0.000
1586465455.782,-57.129,-32.227,-13.184,46.875,0.000
1586465455.786,50.781,-32.227,-163.086,-13.672,0.000
1586465455.790,5.859,-33.203,-393.555,-20.508,0.000
1586465455.793,-104.492,-35.156,-248.535,30.762,0.000
1586465455.797,-83.496,-32.227,6.348,25.879,0.000
1586465455.801,27.832,-30.762,-334.473,-37.109,0.000
1586465455.805,30.762,-35.156,-856.445,-40.527,0.000
1586465455.809,-87.891,-35.156,-703.613,14.648,0.000
1586465455.813,-114.258,-34.668,-15.625,32.227,0.000
1586465455.817,-9.766,-38.574,-25.391,-18.066,0.000
1586465455.821,46.387,-34.668,-445.312,-34.668,0.000
1586465455.825,-43.457,-29.785,-356.445,19.531,0.000
1586465455.829,-115.234,-36.133,35.156,43.945,0.000
1586465455.833,-29.785,-41.016,-92.773,-14.648,0.000
1586465455.836,54.199,-41.504,-455.566,-71.777,0.000
1586465455.840,-17.578,-38.574,-364.746,-33.203,0.000
1586465455.844,-111.816,-34.180,-105.957,38.086,0.000
1586465455.848,-58.105,-35.645,-299.805,43.457,0.000
1586465455.852,43.945,-36.133,-801.758,-6.348,0.000
1586465455.856,9.766,-34.668,-566.406,-6.348,0.000
1586465455.860,-102.051,-36.621,-159.180,52.246,0.000
1586465455.864,-93.262,-36.621,-303.223,52.246,0.000
1586465455.868,27.832,-37.109,-469.238,-1.953,0.000
1586465455.872,53.223,-32.715,-402.832,-14.160,0.000
1586465455.875,-74.219,-28.809,-264.648,17.578,0.000
1586465455.879,-122.070,-32.715,-310.547,31.738,0.000
1586465455.883,-1.953,-35.645,-380.859,-6.836,0.000
1586465455.887,67.871,-32.715,-303.711,-26.855,0.000
1586465455.891,-28.809,-31.738,-292.969,26.367,0.000
1586465455.895,-103.516,-28.320,-440.918,80.078,0.000
1586465455.899,-3.418,-22.949,-622.559,54.199,0.000
1586465455.903,93.262,-22.461,-520.508,0.000,0.000
1586465455.907,28.809,-22.949,-348.633,24.902,0.000
1586465455.911,-75.684,-26.367,-569.824,85.449,0.000
1586465455.915,-44.434,-25.391,-488.770,69.336,0.000
1586465455.918,62.012,-20.508,-201.172,2.441,0.000
1586465455.922,44.922,-18.066,-454.102,-11.230,0.000
1586465455.926,-74.707,-20.020,-477.051,32.715,0.000
1586465455.930,-80.078,-22.461,-185.059,31.738,0.000
1586465455.934,30.273,-23.926,-148.926,-34.668,0.000
1586465455.938,54.688,-24.902,-462.891,-55.176,0.000
1586465455.942,-53.711,-25.391,-708.984,-7.324,0.000
1586465455.946,-103.027,-22.949,-410.156,20.508,0.000
1586465455.950,2.441,-19.531,-130.371,-15.625,0.000
1586465455.954,63.477,-22.949,-512.207,-53.711,0.000
1586465455.958,-33.203,-23.438,-918.457,-6.348,0.000
1586465455.961,-107.910,-20.996,-425.293,50.293,0.000
1586465455.965,-31.250,-23.438,-79.590,19.531,0.000
1586465455.969,64.941,-23.438,-471.680,-26.855,0.000
1586465455.973,14.160,-19.043,-586.914,-5.859,0.000
1586465455.977,-95.703,-18.555,-274.902,33.691,0.000
1586465455.981,-63.477,-21.484,-319.336,25.391,0.000
1586465455.985,50.293,-23.926,-732.910,-30.273,0.000
1586465455.989,26.855,-20.996,-929.199,-40.039,0.000
1586465455.993,-91.797,-15.137,-565.430,1.953,0.000
1586465455.997,-99.121,-18.066,-205.566,-2.441,0.000
1586465456.000,9.277,-21.973,-657.227,-57.617,0.000
1586465456.004,43.457,-19.531,-872.559,-68.359,0.000
1586465456.008,-61.523,-19.043,-312.500,-4.883,0.000
1586465456.012,-119.629,-26.367,-182.129,26.855,0.000
1586465456.016,-28.320,-27.832,-428.223,-20.508,0.000
1586465456.020,45.898,-25.391,-541.504,-77.148,0.000
1586465456.024,-30.273,-22.461,-392.090,-34.180,0.000
1586465456.028,-116.699,-25.391,-304.199,42.480,0.000
1586465456.032,-55.176,-29.297,-391.113,16.113,0.000
1586465456.036,45.898,-26.855,-592.773,-62.012,0.000
1586465456.040,4.395,-26.367,-727.539,-66.406,0.000
1586465456.043,-106.934,-25.879,-685.547,-7.812,0.000
1586465456.047,-83.984,-23.438,-813.965,3.418,0.000
1586465456.051,30.273,-21.973,-524.902,-63.477,0.000
1586465456.055,27.344,-23.438,-285.156,-85.449,0.000
1586465456.059,-82.520,-21.973,-428.711,-19.043,0.000
1586465456.063,-107.910,-25.879,-317.871,4.883,0.000
1586465456.067,-12.207,-29.785,-178.711,-47.363,0.000
1586465456.071,33.203,-28.809,-315.430,-65.918,0.000
1586465456.075,-66.406,-25.879,-488.770,-11.230,0.000
1586465456.079,-141.602,-25.879,-337.402,30.762,0.000
1586465456.083,-47.852,-29.297,-311.523,-2.441,0.000
1586465456.086,46.387,-30.273,-557.129,-56.641,0.000
1586465456.090,-27.344,-27.344,-845.215,-31.738,0.000
1586465456.094,-123.535,-25.391,-647.461,35.645,0.000
1586465456.098,-72.754,-24.902,-185.547,20.996,0.000
1586465456.102,24.414,-26.855,-456.543,-36.133,0.000
1586465456.106,-18.555,-27.832,-590.820,-30.762,0.000
1586465456.110,-136.230,-24.414,-288.086,34.668,0.000
1586465456.114,-124.023,-30.273,25.879,52.734,0.000
1586465456.118,-8.301,-37.598,-191.895,-1.953,0.000
1586465456.122,4.883,-38.574,-407.715,-14.648,0.000
1586465456.125,-114.746,-36.133,-144.043,34.668,0.000
1586465456.129,-148.438,-33.203,-67.383,60.059,0.000
1586465456.133,-33.691,-33.691,-379.883,8.301,0.000
1586465456.137,14.648,-30.273,-761.719,-30.273,0.000
1586465456.141,-84.473,-28.809,-397.949,7.812,0.000
1586465456.145,-151.855,-35.156,78.125,42.480,0.000
1586465456.149,-69.824,-39.062,-133.301,15.625,0.000
1586465456.153,13.672,-37.109,-304.688,-26.367,0.000
1586465456.157,-46.387,-36.133,-200.195,0.977,0.000
1586465456.161,-143.066,-36.621,-185.059,61.523,0.000
1586465456.165,-116.211,-34.668,-205.078,34.668,0.000
1586465456.168,-8.789,-31.250,-142.578,-48.340,0.000
1586465456.172,-30.762,-35.156,-104.492,-44.434,0.000
1586465456.176,-147.949,-37.598,-152.344,9.766,0.000
1586465456.180,-142.578,-37.598,-528.809,16.602,0.000
1586465456.184,-25.879,-31.250,-664.551,-33.691,0.000
1586465456.188,0.000,-28.320,-192.383,-53.223,0.000
1586465456.192,-114.258,-31.738,-133.789,0.000,0.000
1586465456.196,-160.156,-34.180,-187.012,21.973,0.000
1586465456.200,-51.758,-32.715,-117.676,-31.738,0.000
1586465456.204,11.230,-32.227,-132.812,-72.754,0.000
1586465456.208,-86.426,-31.250,-270.508,-27.832,0.000
1586465456.211,-163.574,-27.832,-290.527,19.531,0.000
1586465456.215,-90.332,-31.738,-248.535,-14.160,0.000
1586465456.219,-7.812,-28.809,-396.484,-65.430,0.000
1586465456.223,-62.500,-24.902,-553.711,-29.297,0.000
1586465456.227,-168.945,-26.855,-858.887,31.250,0.000
1586465456.231,-129.395,-28.320,-531.250,-6.348,0.000
1586465456.235,-6.836,-30.273,-141.602,-71.289,0.000
1586465456.239,-15.625,-28.809,-427.734,-76.660,0.000
1586465456.243,-135.742,-28.320,-396.484,-19.531,0.000
1586465456.247,-151.367,-35.645,-28.320,11.719,0.000
1586465456.250,-29.785,-35.156,-44.434,-30.273,0.000
1586465456.254,10.742,-29.785,-430.664,-43.457,0.000
1586465456.258,-97.656,-30.762,-340.332,18.555,0.000
1586465456.262,-149.902,-27.344,70.312,52.246,0.000
1586465456.266,-50.781,-28.809,17.090,7.324,0.000
1586465456.270,20.020,-30.762,-475.586,-39.062,0.000
1586465456.274,-57.129,-28.809,-652.344,-7.324,0.000
1586465456.278,-136.719,-30.273,-253.906,37.109,0.000
1586465456.282,-76.172,-35.645,-12.695,17.578,0.000
1586465456.286,20.020,-32.715,-527.832,-25.391,0.000
1586465456.290,-22.949,-25.879,-652.832,-13.184,0.000
1586465456.293,-124.023,-25.391,-83.008,48.340,0.000
1586465456.297,-96.191,-27.832,-75.195,44.434,0.000
1586465456.301,15.137,-32.227,-343.262,-10.254,0.000
1586465456.305,8.301,-28.320,-378.418,-19.531,0.000
1586465456.309,-102.051,-24.902,-160.645,24.414,0.000
1586465456.313,-122.559,-28.320,-168.457,45.410,0.000
1586465456.317,-20.996,-30.762,-534.180,3.418,0.000
1586465456.321,18.066,-31.738,-683.105,-31.738,0.000
1586465456.325,-79.590,-33.203,-359.863,11.230,0.000
1586465456.329,-145.020,-31.250,-265.625,68.848,0.000
1586465456.333,-47.363,-30.273,-585.449,27.344,0.000
1586465456.336,40.039,-33.203,-532.227,-24.902,0.000
1586465456.340,-45.898,-36.621,-233.887,11.719,0.000
1586465456.344,-142.578,-37.109,-303.223,66.895,0.000
1586465456.348,-88.379,-33.691,-368.652,52.246,0.000
1586465456.352,8.301,-35.156,-178.711,-7.812,0.000
1586465456.356,-16.602,-38.574,-105.469,7.812,0.000
1586465456.360,-115.723,-34.668,-409.180,94.727,0.000
1586465456.364,-112.305,-30.762,-683.105,79.102,0.000
1586465456.368,-14.160,-34.180,-344.727,-15.625,0.000
1586465456.372,-6.348,-34.180,-167.480,-28.320,0.000
1586465456.375,-113.770,-33.203,-569.824,35.645,0.000
1586465456.379,-141.113,-31.738,-653.809,52.734,0.000
1586465456.383,-32.227,-28.320,-19.531,-8.301,0.000
1586465456.387,19.531,-27.344,-49.805,-47.363,0.000
1586465456.391,-77.148,-28.320,-517.090,-6.836,0.000
1586465456.395,-145.996,-27.344,-423.340,41.016,0.000
1586465456.399,-67.871,-26.855,51.270,10.254,0.000
1586465456.403,18.066,-30.762,-155.273,-39.551,0.000
1586465456.407,-41.016,-30.762,-352.051,-21.484,0.000
1586465456.411,-142.578,-31.250,-223.145,25.879,0.000
1586465456.415,-89.844,-30.762,-45.898,13.184,0.000
1586465456.418,27.344,-32.715,-203.125,-43.457,0.000
1586465456.422,-0.488,-32.715,-719.238,-38.086,0.000
1586465456.426,-110.352,-27.344,-257.324,17.578,0.000
1586465456.430,-106.445,-33.203,211.914,15.137,0.000
1586465456.434,4.883,-34.668,-159.668,-32.227,0.000
1586465456.438,17.578,-32.227,-327.148,-44.434,0.000
1586465456.442,-93.750,-32.227,-47.363,10.742,0.000
1586465456.446,-127.930,-31.250,148.438,41.016,0.000
1586465456.450,-22.461,-32.227,-95.215,-13.184,0.000
1586465456.454,40.039,-32.227,-437.012,-51.270,0.000
1586465456.458,-48.340,-36.133,-457.520,-10.742,0.000
1586465456.461,-126.465,-37.598,-271.973,39.551,0.000
1586465456.465,-58.105,-40.039,-573.242,19.531,0.000
1586465456.469,26.855,-43.945,-885.742,-29.297,0.000
1586465456.473,-24.414,-42.480,-316.895,-14.160,0.000
1586465456.477,-123.047,-41.992,-33.203,45.410,0.000
1586465456.481,-89.355,-43.457,-141.113,42.480,0.000
1586465456.485,26.855,-44.434,-166.992,-11.230,0.000
1586465456.489,10.742,-38.574,-182.617,-6.836,0.000
1586465456.493,-108.887,-39.062,-237.305,52.246,0.000
1586465456.497,-108.887,-41.016,-216.309,62.988,0.000
1586465456.500,8.789,-37.598,-111.816,15.137,0.000
1586465456.504,34.668,-38.086,-307.617,-2.441,0.000
1586465456.508,-76.660,-41.016,-535.156,55.176,0.000
1586465456.512,-134.277,-39.062,-636.719,100.098,0.000
1586465456.516,-33.203,-36.133,-347.656,48.828,0.000
1586465456.520,37.598,-34.180,-158.691,-3.906,0.000
1586465456.524,-53.223,-28.809,-300.293,22.949,0.000
1586465456.528,-138.672,-31.738,-249.023,71.777,0.000
1586465456.532,-71.777,-32.715,-93.750,59.082,0.000
1586465456.536,30.762,-30.762,-91.797,2.930,0.000
1586465456.540,-21.973,-34.668,-309.082,-7.324,0.000
1586465456.543,-136.230,-37.598,-189.453,33.691,0.000
1586465456.547,-105.469,-37.598,11.230,29.785,0.000
1586465456.551,2.441,-36.133,-281.738,-27.832,0.000
1586465456.555,-5.859,-33.203,-809.082,-33.203,0.000
1586465456.559,-120.605,-33.691,-740.723,20.020,0.000
1586465456.563,-144.043,-32.715,-85.938,29.785,0.000
1586465456.567,-39.551,-31.250,-142.578,-37.598,0.000
1586465456.571,0.977,-34.668,-632.324,-67.383,0.000
1586465456.575,-93.262,-34.180,-537.109,-15.625,0.000
1586465456.579,-142.090,-32.227,-104.492,8.301,0.000
1586465456.583,-46.387,-31.250,-193.359,-38.086,0.000
1586465456.586,31.738,-31.738,-568.359,-82.031,0.000
1586465456.590,-41.016,-31.250,-438.965,-59.570,0.000
1586465456.594,-132.812,-26.367,-83.008,-15.137,0.000
1586465456.598,-85.449,-28.320,-294.434,-36.133,0.000
1586465456.602,19.043,-31.250,-826.172,-74.707,0.000
1586465456.606,0.488,-33.203,-663.574,-39.551,0.000
1586465456.610,-126.953,-36.133,-150.391,1.953,0.000
1586465456.614,-147.461,-39.062,-294.434,-29.785,0.000
1586465456.618,-41.016,-39.062,-613.770,-94.238,0.000
1586465456.622,-42.969,-42.969,-419.434,-116.211,0.000
1586465456.625,-166.504,-42.969,-281.250,-69.336,0.000
1586465456.629,-203.613,-42.969,-369.141,-52.734,0.000
1586465456.633,-112.793,-46.387,-393.066,-133.789,0.000
1586465456.637,-62.988,-44.922,-299.316,-164.062,0.000
1586465456.641,-173.828,-49.805,-240.723,-118.652,0.000
1586465456.645,-257.812,-54.688,-574.219,-84.961,0.000
1586465456.649,-166.504,-55.664,-693.848,-107.910,0.000
1586465456.653,-72.754,-51.758,-352.539,-148.438,0.000
1586465456.657,-130.371,-50.293,-338.379,-99.609,0.000
1586465456.661,-224.609,-51.270,-453.613,-31.250,0.000
1586465456.665,-169.434,-50.293,-331.055,-36.133,0.000
1586465456.668,-53.711,-47.363,-170.410,-77.637,0.000
1586465456.672,-83.496,-45.410,-294.434,-77.637,0.000
1586465456.676,-192.383,-46.387,-271.973,-23.438,0.000
1586465456.680,-177.246,-40.527,-25.391,-19.043,0.000
1586465456.684,-55.664,-43.457,-53.223,-71.777,0.000
1586465456.688,-33.203,-45.410,-408.203,-74.219,0.000
1586465456.692,-139.648,-38.086,-573.242,-5.859,0.000
1586465456.696,-180.176,-38.086,-371.582,31.250,0.000
1586465456.700,-73.242,-37.598,-117.676,-4.395,0.000
1586465456.704,-6.836,-36.621,-417.969,-34.180,0.000
1586465456.708,-96.191,-37.109,-581.055,-5.859,0.000
1586465456.711,-167.480,-37.598,-23.926,25.879,0.000
1586465456.715,-83.984,-42.480,128.906,-20.508,0.000
1586465456.719,22.949,-43.945,-402.832,-74.219,0.000
1586465456.723,-21.484,-37.109,-612.305,-54.199,0.000
1586465456.727,-126.465,-30.762,-141.602,-6.836,0.000
1586465456.731,-86.426,-34.180,76.172,-5.371,0.000
1586465456.735,30.762,-38.574,-459.961,-63.965,0.000
1586465456.739,18.066,-25.391,-943.359,-63.965,0.000
1586465456.743,-90.332,-23.926,-502.441,-5.859,0.000
1586465456.747,-91.309,-35.156,-143.555,1.465,0.000
1586465456.750,18.555,-35.156,-618.164,-47.852,0.000
1586465456.754,32.715,-30.762,-782.715,-64.453,0.000
1586465456.758,-74.707,-30.273,-125.000,-7.324,0.000
1586465456.762,-121.094,-37.109,-19.043,31.250,0.000
1586465456.766,-23.438,-35.645,-279.785,-2.441,0.000
1586465456.770,44.434,-32.715,-327.637,-42.480,0.000
1586465456.774,-49.316,-27.344,-168.457,-16.602,0.000
1586465456.778,-143.555,-23.926,-111.816,27.344,0.000
1586465456.782,-69.824,-24.902,-382.812,0.488,0.000
1586465456.786,32.715,-21.484,-634.277,-49.805,0.000
1586465456.790,-17.090,-18.066,-548.828,-26.855,0.000
1586465456.793,-119.629,-16.602,-415.039,38.086,0.000
1586465456.797,-94.238,-16.113,-738.281,38.574,0.000
1586465456.801,6.836,-14.648,-555.176,-27.344,0.000
1586465456.805,-13.184,-17.090,-365.234,-34.180,0.000
1586465456.809,-136.719,-22.461,-647.461,22.949,0.000
1586465456.813,-152.344,-20.508,-497.070,38.574,0.000
1586465456.817,-37.109,-16.602,-187.012,-13.184,0.000
1586465456.821,-3.418,-20.020,-325.195,-40.039,0.000
1586465456.825,-111.328,-19.531,-473.145,14.648,0.000
1586465456.829,-166.016,-16.113,-236.816,72.266,0.000
1586465456.833,-73.242,-17.578,-315.918,48.340,0.000
1586465456.836,5.859,-20.508,-599.121,-4.883,0.000
1586465456.840,-62.988,-19.531,-842.773,19.531,0.000
1586465456.844,-145.996,-21.973,-731.934,69.336,0.000
1586465456.848,-78.125,-25.391,-91.797,35.645,0.000
1586465456.852,30.762,-22.949,-181.152,-30.762,0.000
1586465456.856,-5.371,-26.855,-522.949,-31.250,0.000
1586465456.860,-116.699,-27.832,-290.527,21.973,0.000
1586465456.864,-99.121,-29.785,-161.621,20.508,0.000
1586465456.868,17.578,-34.668,-517.578,-44.922,0.000
1586465456.872,15.625,-30.762,-617.676,-57.617,0.000
1586465456.875,-104.004,-33.203,-327.148,-3.418,0.000
1586465456.879,-125.488,-36.133,-312.012,18.555,0.000
1586465456.883,-16.602,-35.156,-610.840,-40.039,0.000
1586465456.887,34.180,-32.227,-866.699,-81.055,0.000
1586465456.891,-60.547,-25.879,-496.094,-28.320,0.000
1586465456.895,-135.742,-26.855,-1.953,20.996,0.000
1586465456.899,-43.945,-29.785,-241.211,-6.348,0.000
1586465456.903,53.223,-30.273,-570.801,-36.621,0.000
1586465456.907,-17.578,-28.809,-312.988,-8.301,0.000
1586465456.911,-125.000,-30.762,-36.621,43.945,0.000
1586465456.915,-74.707,-31.250,-244.141,23.438,0.000
1586465456.918,25.391,-28.320,-446.289,-30.273,0.000
1586465456.922,-11.230,-25.879,-393.066,-12.695,0.000
1586465456.926,-109.375,-27.832,-373.047,39.551,0.000
1586465456.930,-103.027,-30.762,-659.180,46.387,0.000
1586465456.934,11.719,-30.762,-688.477,2.930,0.000
1586465456.938,27.832,-29.297,-237.793,-13.672,0.000
1586465456.942,-90.820,-31.250,-175.781,37.598,0.000
1586465456.946,-118.652,-29.785,-205.078,59.082,0.000
1586465456.950,-8.301,-24.414,-242.676,0.000,0.000
1586465456.954,45.410,-24.414,-354.980,-34.668,0.000
1586465456.958,-49.316,-26.367,-377.930,-3.418,0.000
1586465456.961,-130.859,-29.297,-292.969,19.531,0.000
1586465456.965,-47.852,-27.832,-138.184,-9.766,0.000
1586465456.969,46.875,-21.973,-155.762,-38.574,0.000
1586465456.973,-20.020,-23.926,-450.195,12.695,0.000
1586465456.977,-112.793,-29.297,-801.758,68.848,0.000
1586465456.981,-57.129,-28.320,-603.516,30.273,0.000
1586465456.985,62.500,-24.902,-314.941,-20.508,0.000
1586465456.989,25.391,-26.367,-499.512,-37.109,0.000
1586465456.993,-129.395,-29.785,-571.289,-20.996,0.000
1586465456.997,-135.742,-31.738,-116.699,-11.719,0.000
1586465457.000,-20.020,-35.645,-82.031,-64.941,0.000
1586465457.004,-10.742,-31.738,-507.324,-102.051,0.000
1586465457.008,-134.277,-28.809,-484.863,-52.734,0.000
1586465457.012,-187.500,-34.668,-57.617,-14.160,0.000
1586465457.016,-94.238,-38.574,-93.262,-58.105,0.000
1586465457.020,-35.156,-40.039,-589.844,-105.957,0.000
1586465457.024,-123.535,-40.527,-737.793,-75.684,0.000
1586465457.028,-208.496,-41.992,-272.461,-30.762,0.000
1586465457.032,-124.512,-39.062,-37.109,-64.453,0.000
1586465457.036,-17.578,-40.527,-594.238,-108.887,0.000
1586465457.040,-72.266,-45.410,-758.301,-65.430,0.000
1586465457.043,-172.852,-41.992,-256.836,-10.254,0.000
1586465457.047,-136.719,-40.039,-129.395,-21.973,0.000
1586465457.051,-20.508,-40.039,-348.633,-67.383,0.000
1586465457.055,-25.391,-36.621,-418.457,-55.664,0.000
1586465457.059,-135.742,-36.133,-147.461,9.277,0.000
1586465457.063,-149.414,-42.480,-71.777,15.137,0.000
1586465457.067,-23.926,-42.480,-483.398,-49.805,0.000
1586465457.071,17.578,-38.086,-573.242,-78.125,0.000
1586465457.075,-94.238,-39.062,-177.734,-20.996,0.000
1586465457.079,-150.391,-42.969,-160.645,24.414,0.000
1586465457.083,-56.641,-41.992,-712.402,3.418,0.000
1586465457.086,22.461,-35.156,-550.293,-37.598,0.000
1586465457.090,-48.340,-38.086,-101.074,-11.230,0.000
1586465457.094,-135.742,-40.039,-130.859,41.016,0.000
1586465457.098,-72.266,-38.574,-157.227,11.230,0.000
1586465457.102,39.551,-33.691,-318.359,-38.086,0.000
1586465457.106,-8.301,-36.133,-354.004,-18.066,0.000
1586465457.110,-127.441,-41.504,-265.625,41.992,0.000
1586465457.114,-92.773,-36.621,-392.090,37.109,0.000
1586465457.118,29.297,-36.621,-417.480,-33.203,0.000
1586465457.122,29.297,-37.598,-222.656,-29.785,0.000
1586465457.125,-83.984,-35.645,-586.914,44.922,0.000
1586465457.129,-102.051,-37.109,-625.977,62.500,0.000
1586465457.133,11.719,-36.133,-63.477,-2.930,0.000
1586465457.137,58.105,-34.668,-267.090,-34.180,0.000
1586465457.141,-48.828,-33.691,-441.406,14.648,0.000
1586465457.145,-113.770,-31.738,-169.922,48.828,0.000
1586465457.149,-20.508,-34.668,-15.137,7.812,0.000
1586465457.153,50.781,-32.715,-268.555,-32.227,0.000
1586465457.157,-28.809,-26.855,-445.312,0.977,0.000
1586465457.161,-135.254,-28.809,-273.926,48.828,0.000
1586465457.165,-79.102,-30.762,-200.684,18.066,0.000
1586465457.168,26.855,-31.738,-426.758,-41.504,0.000
1586465457.172,-12.695,-30.273,-770.508,-36.133,0.000
1586465457.176,-110.352,-25.879,-315.918,18.066,0.000
1586465457.180,-90.820,-30.273,231.934,19.531,0.000
1586465457.184,29.785,-33.203,-35.645,-29.297,0.000
1586465457.188,45.410,-29.785,-245.117,-31.250,0.000
1586465457.192,-63.477,-29.297,56.641,30.762,0.000
1586465457.196,-93.750,-33.203,227.051,62.500,0.000
1586465457.200,12.695,-34.180,-28.320,10.254,0.000
1586465457.204,67.383,-33.691,-194.336,-21.973,0.000
1586465457.208,-36.133,-36.133,-217.773,18.066,0.000
1586465457.211,-114.746,-37.109,-42.480,58.105,0.000
1586465457.215,-35.645,-37.598,-368.652,29.297,0.000
1586465457.219,50.293,-34.180,-815.918,-15.625,0.000
1586465457.223,-16.602,-32.227,-211.426,11.230,0.000
1586465457.227,-119.629,-33.691,144.043,57.129,0.000
1586465457.231,-74.219,-32.715,38.086,39.062,0.000
1586465457.235,35.156,-28.809,-68.848,-14.160,0.000
1586465457.239,20.020,-22.949,-55.176,-21.484,0.000
1586465457.243,-98.633,-21.973,-25.391,36.621,0.000
1586465457.247,-109.375,-22.461,-45.410,52.246,0.000
1586465457.250,8.789,-22.949,-28.320,-0.977,0.000
1586465457.254,31.738,-25.879,-305.664,-18.066,0.000
1586465457.258,-90.332,-28.320,-391.602,29.785,0.000
1586465457.262,-133.301,-29.785,-416.504,55.176,0.000
1586465457.266,-19.043,-29.297,-190.918,1.465,0.000
1586465457.270,54.688,-33.203,19.043,-37.109,0.000
1586465457.274,-22.949,-34.668,-173.340,6.348,0.000
1586465457.278,-100.098,-28.320,-166.504,46.387,0.000
1586465457.282,-40.039,-20.996,122.070,2.441,0.000
1586465457.286,51.270,-16.113,74.707,-49.316,0.000
1586465457.290,-3.906,-10.742,-190.430,-16.602,0.000
1586465457.293,-121.582,-7.324,-14.648,40.039,0.000
1586465457.297,-79.590,-5.371,195.801,31.250,0.000
1586465457.301,29.785,-4.883,-104.980,-39.551,0.000
1586465457.305,20.996,-0.977,-684.082,-47.852,0.000
1586465457.309,-86.914,-1.465,-604.980,3.418,0.000
1586465457.313,-99.609,-1.465,98.633,8.301,0.000
1586465457.317,18.066,5.371,77.637,-45.410,0.000
1586465457.321,51.270,4.883,-209.961,-68.359,0.000
1586465457.325,-62.988,-0.977,-107.422,-18.555,0.000
1586465457.329,-112.305,-5.859,178.711,-4.395,0.000
1586465457.333,-7.812,-7.812,23.438,-55.176,0.000
1586465457.336,60.547,-6.836,-478.516,-86.914,0.000
1586465457.340,-23.926,-6.836,-406.250,-42.969,0.000
1586465457.344,-104.492,-7.324,-20.508,10.742,0.000
1586465457.348,-37.109,-9.766,-226.074,-4.395,0.000
1586465457.352,53.223,-10.254,-858.398,-60.059,0.000
1586465457.356,6.836,-5.371,-670.410,-69.336,0.000
1586465457.360,-108.887,-7.812,34.668,-22.461,0.000
1586465457.364,-84.473,-13.184,-115.723,-29.297,0.000
1586465457.368,34.180,-15.137,-530.762,-89.844,0.000
1586465457.372,24.414,-17.578,-362.793,-104.980,0.000
1586465457.375,-88.379,-19.043,-204.102,-67.871,0.000
1586465457.379,-107.910,-21.484,-162.109,-58.105,0.000
1586465457.383,5.371,-22.461,-244.141,-105.469,0.000
1586465457.387,61.035,-23.438,-236.328,-124.023,0.000
1586465457.391,-40.527,-23.926,-195.312,-61.035,0.000
1586465457.395,-122.070,-20.996,-347.168,-2.441,0.000
1586465457.399,-23.438,-21.484,-546.875,-39.062,0.000
1586465457.403,74.219,-15.625,-529.785,-85.938,0.000
1586465457.407,1.465,-14.160,-310.547,-33.691,0.000
1586465457.411,-97.168,-13.672,-580.566,19.043,0.000
1586465457.415,-34.668,-10.254,-636.719,-13.184,0.000
1586465457.418,79.590,-14.160,-308.105,-65.430,0.000
1586465457.422,31.738,-14.648,-471.191,-46.875,0.000
1586465457.426,-83.008,-20.020,-467.285,10.742,0.000
1586465457.430,-69.824,-22.949,-284.668,5.371,0.000
1586465457.434,37.109,-21.973,-295.410,-54.688,0.000
1586465457.438,40.039,-24.414,-516.113,-68.848,0.000
1586465457.442,-73.242,-22.949,-720.215,-32.715,0.000
1586465457.446,-99.609,-23.438,-429.688,-28.320,0.000
1586465457.450,20.020,-26.855,-153.320,-75.195,0.000
1586465457.454,83.496,-31.250,-539.062,-98.633,0.000
1586465457.458,-20.020,-32.715,-865.723,-54.688,0.000
1586465457.461,-100.098,-26.855,-379.395,-17.578,0.000
1586465457.465,-12.695,-26.367,-43.457,-52.734,0.000
1586465457.469,79.590,-23.926,-433.594,-106.445,0.000
1586465457.473,4.883,-24.902,-545.410,-89.355,0.000
1586465457.477,-92.773,-27.344,-83.496,-20.996,0.000
1586465457.481,-24.902,-22.461,58.105,-12.207,0.000
1586465457.485,86.426,-21.973,-302.734,-59.082,0.000
1586465457.489,44.922,-22.461,-627.930,-52.246,0.000
1586465457.493,-90.332,-20.996,-377.930,-1.953,0.000
1586465457.497,-94.238,-25.879,79.590,12.695,0.000
1586465457.500,23.926,-33.691,-455.566,-30.762,0.000
1586465457.504,50.781,-28.809,-802.246,-33.203,0.000
1586465457.508,-56.641,-20.020,-109.863,30.762,0.000
1586465457.512,-103.516,-25.391,35.645,41.016,0.000
1586465457.516,-10.742,-24.902,-206.543,-9.766,0.000
1586465457.520,44.434,-26.367,-172.363,-47.363,0.000
1586465457.524,-25.391,-27.344,30.273,-0.488,0.000
1586465457.528,-112.305,-22.461,46.875,37.109,0.000
1586465457.532,-41.504,-20.020,-112.793,-25.391,0.000
1586465457.536,65.918,-25.879,-341.797,-80.566,0.000
1586465457.540,11.719,-31.738,-293.945,-48.340,0.000
1586465457.543,-79.102,-29.785,-80.078,29.785,0.000
1586465457.547,-56.152,-31.738,-457.031,1.953,0.000
1586465457.551,44.922,-28.809,-370.117,-95.703,0.000
1586465457.555,35.156,-27.832,-48.340,-96.191,0.000
1586465457.559,-63.965,-27.344,-110.352,-15.137,0.000
1586465457.563,-65.918,-24.902,9.277,14.648,0.000
1586465457.567,46.875,-32.227,98.633,-32.715,0.000
1586465457.571,99.609,-33.691,-227.539,-54.688,0.000
1586465457.575,0.977,-33.203,-390.137,4.883,0.000
1586465457.579,-44.922,-38.086,-101.074,54.199,0.000
1586465457.583,48.340,-42.480,-151.367,21.973,0.000
1586465457.586,112.793,-41.504,-456.055,-14.160,0.000
1586465457.590,22.461,-47.363,-496.094,20.508,0.000
1586465457.594,-51.270,-41.504,-150.391,79.102,0.000
1586465457.598,30.273,-39.062,102.051,64.453,0.000
1586465457.602,116.211,-48.828,-66.895,5.371,0.000
1586465457.606,53.223,-43.457,-689.941,9.277,0.000
1586465457.610,-67.383,-38.086,-662.109,69.824,0.000
1586465457.614,-51.758,-35.156,18.555,54.199,0.000
1586465457.618,69.824,-33.203,-210.449,-10.742,0.000
1586465457.622,71.289,-36.621,-459.473,-30.273,0.000
1586465457.625,-31.738,-33.691,-233.887,13.184,0.000
1586465457.629,-51.270,-30.273,-254.883,40.527,0.000
1586465457.633,46.875,-33.203,-586.426,0.000,0.000
1586465457.637,85.449,-29.785,-909.180,-21.973,0.000
1586465457.641,-24.414,-21.973,-572.266,22.461,0.000
1586465457.645,-85.938,-25.879,-102.051,59.082,0.000
1586465457.649,11.230,-27.344,-302.246,19.043,0.000
1586465457.653,88.379,-26.367,-496.582,-31.738,0.000
1586465457.657,2.441,-26.367,-240.234,0.488,0.000
1586465457.661,-98.145,-27.832,-43.457,43.945,0.000
1586465457.665,-36.133,-31.250,-290.527,10.254,0.000
1586465457.668,72.754,-29.297,-496.094,-44.434,0.000
1586465457.672,22.461,-31.250,-379.883,-22.461,0.000
1586465457.676,-92.773,-35.645,-383.789,41.992,0.000
1586465457.680,-75.684,-38.086,-703.613,49.316,0.000
1586465457.684,31.738,-36.621,-851.074,0.488,0.000
1586465457.688,33.691,-37.109,-561.523,-29.297,0.000
1586465457.692,-89.844,-39.062,-540.527,6.836,0.000
1586465457.696,-122.070,-33.691,-413.086,32.715,0.000
1586465457.700,-31.738,-33.203,-253.418,-16.602,0.000
1586465457.704,-4.395,-32.227,-273.438,-65.918,0.000
1586465457.708,-108.887,-33.691,-364.746,-27.344,0.000
1586465457.711,-171.387,-34.668,-322.754,22.949,0.000
1586465457.715,-75.195,-34.180,-120.605,-17.090,0.000
1586465457.719,1.465,-39.062,-183.594,-66.895,0.000
1586465457.723,-66.895,-38.086,-558.105,-50.293,0.000
1586465457.727,-160.645,-32.227,-631.348,-4.883,0.000
1586465457.731,-105.957,-28.809,-240.723,-28.320,0.000
1586465457.735,-1.465,-30.273,-188.477,-92.285,0.000
1586465457.739,-47.363,-32.715,-557.129,-83.496,0.000
1586465457.743,-155.273,-31.250,-557.617,-25.879,0.000
1586465457.747,-143.066,-32.227,-217.773,-19.043,0.000
1586465457.750,-35.645,-30.762,-386.719,-72.754,0.000
1586465457.754,-10.742,-30.762,-771.973,-85.449,0.000
1586465457.758,-114.746,-35.156,-785.645,-29.785,0.000
1586465457.762,-151.367,-31.738,-163.574,-9.766,0.000
1586465457.766,-41.504,-33.203,-22.461,-52.246,0.000
1586465457.770,34.180,-35.156,-659.668,-64.941,0.000
1586465457.774,-41.016,-31.738,-771.973,-19.531,0.000
1586465457.778,-118.652,-32.715,-177.734,11.719,0.000
1586465457.782,-47.852,-29.785,-90.332,-14.648,0.000
1586465457.786,49.805,-26.367,-576.660,-61.035,0.000
1586465457.790,-13.184,-24.902,-562.500,-44.922,0.000
1586465457.793,-113.281,-23.926,-54.688,8.301,0.000
1586465457.797,-58.105,-24.414,-175.293,-3.906,0.000
1586465457.801,51.758,-23.438,-390.625,-65.430,0.000
1586465457.805,23.926,-29.785,-324.219,-67.383,0.000
1586465457.809,-98.633,-35.156,-247.070,-17.090,0.000
1586465457.813,-97.168,-37.109,-112.305,-6.348,0.000
1586465457.817,33.691,-31.738,-403.809,-58.594,0.000
1586465457.821,70.312,-26.367,-514.648,-69.336,0.000
1586465457.825,-54.688,-22.461,-116.699,-16.602,0.000
1586465457.829,-103.027,-23.926,-187.988,14.648,0.000
1586465457.833,15.137,-21.484,-651.367,-15.625,0.000
1586465457.836,75.195,-13.672,-449.707,-62.500,0.000
1586465457.840,-16.113,-11.719,-99.609,-35.156,0.000
1586465457.844,-84.473,-24.902,-219.238,29.785,0.000
1586465457.848,-2.930,-28.809,-266.602,13.184,0.000
1586465457.852,92.773,-21.973,-216.797,-49.805,0.000
1586465457.856,18.555,-23.926,-283.203,-39.062,0.000
1586465457.860,-83.496,-24.414,-307.129,11.230,0.000
1586465457.864,-51.270,-24.414,-375.977,-14.160,0.000
1586465457.868,41.504,-25.391,-479.492,-75.684,0.000
1586465457.872,45.410,-26.855,-498.047,-71.777,0.000
1586465457.875,-79.590,-30.273,-595.215,-10.254,0.000
1586465457.879,-115.723,-26.367,-359.375,15.625,0.000
1586465457.883,-8.301,-24.414,-21.973,-43.457,0.000
1586465457.887,24.902,-24.414,-204.590,-65.918,0.000
1586465457.891,-87.891,-27.832,-604.492,-3.906,0.000
1586465457.895,-155.762,-36.621,-397.949,13.184,0.000
1586465457.899,-48.340,-33.691,42.969,-40.039,0.000
1586465457.903,46.875,-25.391,-264.648,-70.312,0.000
1586465457.907,-25.391,-29.785,-450.684,-21.973,0.000
1586465457.911,-109.863,-34.180,-333.984,37.598,0.000
1586465457.915,-62.500,-30.273,-192.383,9.277,0.000
1586465457.918,29.785,-41.992,-266.113,-57.129,0.000
1586465457.922,-3.906,-44.434,-762.207,-40.527,0.000
1586465457.926,-90.820,-32.227,-501.953,46.387,0.000
1586465457.930,-65.430,-34.180,111.816,53.223,0.000
1586465457.934,21.484,-41.992,-77.148,-20.020,0.000
1586465457.938,24.902,-41.016,-306.641,-25.879,0.000
1586465457.942,-63.477,-36.621,-66.895,45.898,0.000
1586465457.946,-81.543,-41.992,69.824,76.172,0.000
1586465457.950,26.367,-41.016,-143.066,25.879,0.000
1586465457.954,82.520,-35.645,-332.031,-6.348,0.000
1586465457.958,-25.879,-39.551,-328.125,37.598,0.000
1586465457.961,-109.863,-39.062,-180.664,67.383,0.000
1586465457.965,-23.438,-41.016,-496.582,25.879,0.000
1586465457.969,64.453,-41.016,-755.859,-15.137,0.000
1586465457.973,-3.906,-38.574,-173.340,17.090,0.000
1586465457.977,-105.957,-20.996,14.648,67.383,0.000
1586465457.981,-49.316,-29.297,-163.574,56.641,0.000
1586465457.985,57.129,-44.434,-391.602,8.301,0.000
1586465457.989,13.184,-32.227,-265.137,19.043,0.000
1586465457.993,-98.145,-31.738,-96.191,82.520,0.000
1586465457.997,-90.820,-32.715,-145.020,84.961,0.000
1586465458.000,17.578,-32.227,-203.125,24.902,0.000
1586465458.004,22.461,-29.785,-465.332,21.484,0.000
1586465458.008,-95.703,-32.227,-611.328,75.684,0.000
1586465458.012,-123.047,-33.203,-801.758,93.262,0.000
1586465458.016,0.977,-29.785,-527.832,45.410,0.000
1586465458.020,67.383,-32.715,-266.113,0.488,0.000
1586465458.024,-27.344,-37.598,-424.316,34.668,0.000
1586465458.028,-94.727,-33.203,-269.531,81.055,0.000
1586465458.032,-4.395,-23.926,-78.613,68.359,0.000
1586465458.036,84.961,-31.250,-231.934,21.973,0.000
1586465458.040,25.391,-38.574,-496.094,53.223,0.000
1586465458.043,-73.730,-35.156,-498.047,127.930,0.000
1586465458.047,-32.715,-34.668,-231.934,122.070,0.000
1586465458.051,78.613,-36.621,-365.723,72.754,0.000
1586465458.055,50.293,-30.762,-861.328,66.895,0.000
1586465458.059,-56.641,-26.367,-780.273,127.441,0.000
1586465458.063,-42.480,-26.855,-145.996,149.414,0.000
1586465458.067,70.801,-26.855,-146.973,83.008,0.000
1586465458.071,94.238,-27.344,-490.723,52.734,0.000
1586465458.075,-20.996,-30.762,-344.238,102.051,0.000
1586465458.079,-78.125,-38.086,-51.758,118.164,0.000
1586465458.083,21.484,-33.691,-212.402,48.340,0.000
1586465458.086,98.145,-29.297,-522.949,17.578,0.000
1586465458.090,8.301,-36.621,-421.387,56.152,0.000
1586465458.094,-84.473,-33.691,-178.711,83.496,0.000
1586465458.098,0.000,-36.133,-419.434,50.781,0.000
1586465458.102,101.074,-39.062,-846.191,-14.160,0.000
1586465458.106,32.715,-34.180,-629.395,-12.695,0.000
1586465458.110,-86.426,-35.645,-125.977,32.227,0.000
1586465458.114,-61.523,-39.062,-253.906,37.598,0.000
1586465458.118,30.273,-29.785,-833.984,-15.625,0.000
1586465458.122,5.371,-29.297,-578.125,-27.832,0.000
1586465458.125,-109.863,-40.527,-100.586,20.508,0.000
1586465458.129,-123.047,-40.039,-207.031,17.578,0.000
1586465458.133,-6.836,-38.086,-339.844,-43.457,0.000
1586465458.137,19.043,-36.621,-349.609,-71.289,0.000
1586465458.141,-92.285,-36.621,-288.574,-14.160,0.000
1586465458.145,-144.531,-38.086,-495.605,26.367,0.000
1586465458.149,-61.035,-35.645,-641.602,-17.578,0.000
1586465458.153,8.789,-36.133,-312.012,-57.129,0.000
1586465458.157,-77.637,-32.227,-271.973,-17.578,0.000
1586465458.161,-181.641,-28.809,-564.941,42.969,0.000
1586465458.165,-104.004,-37.109,-480.957,38.086,0.000
1586465458.168,1.465,-38.086,-216.797,-14.648,0.000
1586465458.172,-58.105,-40.039,-330.078,-4.395,0.000
1586465458.176,-168.457,-38.574,-373.047,48.340,0.000
1586465458.180,-135.742,-35.156,-190.430,42.969,0.000
1586465458.184,-9.277,-36.621,-149.414,-8.301,0.000
1586465458.188,-4.395,-28.809,-398.926,-13.672,0.000
1586465458.192,-128.906,-28.320,-567.871,34.180,0.000
1586465458.196,-159.180,-42.969,-445.312,44.922,0.000
1586465458.200,-46.875,-41.504,-272.949,-7.812,0.000
1586465458.204,3.906,-34.180,-493.652,-30.273,0.000
1586465458.208,-101.074,-33.203,-880.371,21.484,0.000
1586465458.211,-168.457,-35.156,-391.602,48.828,0.000
1586465458.215,-74.219,-39.062,-152.344,7.324,0.000
1586465458.219,11.230,-39.062,-663.574,-41.016,0.000
1586465458.223,-61.523,-35.156,-572.266,-11.230,0.000
1586465458.227,-152.832,-35.645,-114.258,48.828,0.000
1586465458.231,-96.191,-36.133,-67.383,19.043,0.000
1586465458.235,7.812,-37.109,-441.406,-42.480,0.000
1586465458.239,-22.461,-36.621,-699.219,-31.250,0.000
1586465458.243,-134.766,-33.691,-504.395,28.320,0.000
1586465458.247,-113.281,-36.133,-161.133,29.785,0.000
1586465458.250,9.277,-37.598,-559.082,-40.039,0.000
1586465458.254,15.137,-32.227,-859.863,-57.617,0.000
1586465458.258,-99.609,-28.320,-267.578,3.418,0.000
1586465458.262,-128.906,-30.273,-71.289,34.180,0.000
1586465458.266,-20.996,-31.738,-291.016,-13.672,0.000
1586465458.270,33.203,-32.227,-341.797,-51.758,0.000
1586465458.274,-63.477,-31.738,-238.281,-29.297,0.000
1586465458.278,-138.672,-34.668,-283.203,-11.719,0.000
1586465458.282,-51.758,-39.551,-361.328,-43.945,0.000
1586465458.286,43.945,-37.109,-526.367,-78.125,0.000
1586465458.290,-18.555,-33.203,-499.023,-50.293,0.000
1586465458.293,-104.492,-35.645,-335.449,16.113,0.000
1586465458.297,-46.387,-39.062,-713.379,19.531,0.000
1586465458.301,66.406,-35.156,-626.953,-30.273,0.000
1586465458.305,46.875,-35.645,-316.895,-17.090,0.000
1586465458.309,-64.453,-38.574,-402.344,44.434,0.000
1586465458.313,-66.895,-37.598,-354.980,51.270,0.000
1586465458.317,44.922,-31.250,-225.586,4.883,0.000
1586465458.321,61.523,-26.367,-263.184,-9.277,0.000
1586465458.325,-51.758,-28.809,-409.668,48.340,0.000
1586465458.329,-85.938,-35.156,-299.316,81.055,0.000
1586465458.333,19.043,-34.180,-340.820,22.949,0.000
1586465458.336,79.102,-30.273,-639.160,-18.555,0.000
1586465458.340,-14.160,-33.691,-712.891,19.043,0.000
1586465458.344,-99.121,-36.133,-390.625,68.359,0.000
1586465458.348,-23.926,-37.109,-51.758,53.711,0.000
1586465458.352,72.754,-39.551,-228.027,1.953,0.000
1586465458.356,15.625,-37.109,-791.016,22.461,0.000
1586465458.360,-86.426,-31.250,-722.168,82.520,0.000
1586465458.364,-53.223,-35.645,-156.738,70.312,0.000
1586465458.368,53.223,-40.039,-333.984,11.230,0.000
1586465458.372,36.133,-38.574,-624.023,3.906,0.000
1586465458.375,-79.590,-38.574,-462.402,56.152,0.000
1586465458.379,-83.984,-36.133,-391.602,65.918,0.000
1586465458.383,23.926,-35.156,-585.938,4.883,0.000
1586465458.387,46.387,-29.297,-833.496,-20.508,0.000
1586465458.391,-59.082,-23.926,-500.488,13.672,0.000
1586465458.395,-113.770,-32.715,-139.648,33.691,0.000
1586465458.399,-14.160,-34.180,-447.266,-7.812,0.000
1586465458.403,58.105,-33.203,-566.406,-58.105,0.000
1586465458.407,-33.203,-36.621,-290.527,-36.133,0.000
1586465458.411,-120.117,-38.086,-80.078,3.418,0.000
1586465458.415,-47.363,-39.062,-338.867,-25.879,0.000
1586465458.418,52.246,-34.180,-549.316,-80.078,0.000
1586465458.422,1.953,-27.832,-436.035,-52.734,0.000
1586465458.426,-107.422,-26.367,-477.539,9.277,0.000
1586465458.430,-80.078,-23.438,-771.973,1.465,0.000
1586465458.434,42.969,-21.973,-860.352,-59.082,0.000
1586465458.438,50.293,-28.809,-436.035,-62.988,0.000
1586465458.442,-76.660,-31.250,-296.387,-11.230,0.000
1586465458.446,-113.281,-29.297,-345.215,-9.277,0.000
1586465458.450,5.371,-32.715,-325.684,-51.758,0.000
1586465458.454,62.012,-32.227,-409.668,-52.734,0.000
1586465458.458,-35.645,-32.227,-552.246,-2.441,0.000
1586465458.461,-108.887,-33.203,-432.129,15.137,0.000
1586465458.465,-17.090,-33.691,-253.418,-30.762,0.000
1586465458.469,59.570,-32.715,-337.891,-66.406,0.000
1586465458.473,-23.438,-31.738,-584.473,-19.043,0.000
1586465458.477,-110.352,-28.320,-809.570,43.457,0.000
1586465458.481,-46.875,-26.855,-461.914,21.484,0.000
1586465458.485,57.129,-31.738,-166.504,-41.016,0.000
1586465458.489,8.301,-31.738,-492.188,-59.570,0.000
1586465458.493,-104.492,-30.273,-461.914,-5.859,0.000
1586465458.497,-79.590,-31.738,-103.027,15.625,0.000
1586465458.500,36.621,-31.738,-138.672,-38.086,0.000
1586465458.504,39.062,-29.297,-494.141,-36.621,0.000
1586465458.508,-73.730,-29.785,-493.164,23.926,0.000
1586465458.512,-101.074,-28.320,-236.328,49.805,0.000
1586465458.516,2.441,-29.785,-413.574,14.648,0.000
1586465458.520,51.270,-27.344,-831.543,-10.742,0.000
1586465458.524,-48.340,-27.344,-731.445,23.438,0.000
1586465458.528,-113.281,-32.227,-164.551,60.059,0.000
1586465458.532,-24.902,-32.715,-107.422,41.504,0.000
1586465458.536,60.547,-38.574,-685.059,12.207,0.000
1586465458.540,-13.184,-33.691,-804.199,37.109,0.000
1586465458.543,-110.352,-24.902,-178.711,91.797,0.000
1586465458.547,-59.082,-31.250,-117.676,85.938,0.000
1586465458.551,49.805,-32.715,-463.379,34.668,0.000
1586465458.555,23.926,-23.926,-432.617,49.805,0.000
1586465458.559,-87.891,-20.508,-160.645,118.652,0.000
1586465458.563,-69.824,-23.926,-216.797,130.859,0.000
1586465458.567,41.504,-26.367,-598.633,61.035,0.000
1586465458.571,45.410,-27.832,-703.125,30.273,0.000
1586465458.575,-69.336,-32.227,-486.328,79.590,0.000
1586465458.579,-95.215,-31.250,-444.824,102.051,0.000
1586465458.583,11.719,-26.367,-747.070,42.969,0.000
1586465458.586,56.641,-22.461,-565.430,-10.254,0.000
1586465458.590,-39.062,-23.926,-175.293,33.203,0.000
1586465458.594,-116.211,-28.320,-193.848,80.566,0.000
1586465458.598,-37.109,-31.250,-224.609,43.457,0.000
1586465458.602,68.359,-26.367,-166.504,-1.465,0.000
1586465458.606,9.766,-28.809,-123.535,17.578,0.000
1586465458.610,-122.070,-34.180,-183.594,43.457,0.000
1586465458.614,-88.379,-33.203,-379.883,25.391,0.000
1586465458.618,36.133,-33.203,-423.828,-15.625,0.000
1586465458.622,17.090,-32.715,-275.879,-19.043,0.000
1586465458.625,-104.004,-36.621,-598.633,28.320,0.000
1586465458.629,-115.723,-35.156,-731.934,24.902,0.000
1586465458.633,-5.371,-32.715,-375.000,-43.945,0.000
1586465458.637,26.855,-38.574,-428.223,-62.012,0.000
1586465458.641,-77.637,-41.016,-390.625,-4.395,0.000
1586465458.645,-129.395,-43.945,-56.152,46.387,0.000
1586465458.649,-27.344,-45.410,43.457,26.855,0.000
1586465458.653,46.875,-45.410,-275.879,-22.461,0.000
1586465458.657,-41.016,-44.922,-385.254,1.465,0.000
1586465458.661,-120.605,-45.898,-292.480,40.527,0.000
1586465458.665,-42.969,-49.316,-223.633,3.906,0.000
1586465458.668,52.734,-45.898,-354.004,-54.199,0.000
1586465458.672,-1.465,-40.527,-791.504,-43.945,0.000
1586465458.676,-121.094,-37.598,-378.418,17.578,0.000
1586465458.680,-93.262,-40.527,123.047,4.883,0.000
1586465458.684,34.180,-44.434,-192.383,-58.594,0.000
1586465458.688,37.109,-40.527,-427.734,-45.410,0.000
1586465458.692,-72.266,-36.133,-270.508,11.719,0.000
1586465458.696,-89.844,-40.527,-29.785,23.438,0.000
1586465458.700,24.902,-42.480,-256.836,-24.902,0.000
1586465458.704,62.988,-38.574,-497.559,-58.594,0.000
1586465458.708,-41.016,-38.574,-471.680,-20.508,0.000
1586465458.711,-96.191,-40.527,-372.559,23.438,0.000
1586465458.715,-3.418,-39.062,-600.586,5.371,0.000
1586465458.719,72.754,-32.227,-675.293,-36.621,0.000
1586465458.723,-6.348,-30.273,-151.367,-16.602,0.000
1586465458.727,-111.328,-36.621,25.391,32.227,0.000
1586465458.731,-57.617,-38.574,-535.156,10.254,0.000
1586465458.735,62.500,-37.109,-739.746,-66.895,0.000
1586465458.739,23.926,-38.574,-205.566,-71.777,0.000
1586465458.743,-98.633,-41.992,-109.863,-24.902,0.000
1586465458.747,-83.496,-43.945,-136.719,-74.707,0.000
1586465458.750,36.133,-39.062,-286.133,-162.598,0.000
1586465458.754,36.621,-38.574,-458.008,-172.852,0.000
1586465458.758,-86.426,-42.480,-414.551,-107.422,0.000
1586465458.762,-108.398,-38.574,-521.973,-52.734,0.000
1586465458.766,2.441,-33.203,-295.898,-91.797,0.000
1586465458.770,51.758,-35.645,-20.020,-115.234,0.000
1586465458.774,-51.758,-37.598,-193.848,-50.781,0.000
1586465458.778,-122.070,-37.598,-143.066,-3.906,0.000
1586465458.782,-39.551,-32.227,40.039,-43.945,0.000
1586465458.786,41.504,-37.109,-118.652,-108.398,0.000
1586465458.790,-24.902,-41.016,-353.516,-70.312,0.000
1586465458.793,-126.953,-37.598,-184.082,-9.277,0.000
1586465458.797,-65.430,-38.086,31.250,-24.414,0.000
1586465458.801,45.410,-32.227,-234.863,-64.941,0.000
1586465458.805,14.160,-34.668,-731.934,-62.988,0.000
1586465458.809,-93.750,-38.574,-800.781,-17.090,0.000
1586465458.813,-95.703,-40.527,-128.906,-11.719,0.000
1586465458.817,29.297,-38.086,6.348,-64.941,0.000
1586465458.821,45.898,-32.227,-287.109,-62.500,0.000
1586465458.825,-72.266,-34.180,-210.938,-1.953,0.000
1586465458.829,-112.305,-33.691,53.223,18.066,0.000
1586465458.833,-13.184,-29.297,-53.711,-20.020,0.000
1586465458.836,43.457,-30.273,-368.164,-41.504,0.000
1586465458.840,-59.082,-33.691,-214.355,20.020,0.000
1586465458.844,-133.301,-29.297,21.484,61.523,0.000
1586465458.848,-41.016,-28.809,-207.031,14.648,0.000
1586465458.852,39.062,-25.879,-583.496,-48.340,0.000
1586465458.856,-24.414,-19.531,-304.199,-32.715,0.000
1586465458.860,-122.070,-25.391,203.125,29.297,0.000
1586465458.864,-96.191,-32.227,37.598,16.113,0.000
1586465458.868,16.602,-33.691,-623.535,-49.316,0.000
1586465458.872,5.859,-33.203,-371.094,-41.992,0.000
1586465458.875,-105.957,-35.645,200.684,20.508,0.000
1586465458.879,-103.516,-36.133,94.238,34.668,0.000
1586465458.883,15.625,-36.621,-92.285,-16.113,0.000
1586465458.887,37.109,-39.551,-82.520,-36.133,0.000
1586465458.891,-73.730,-44.922,62.012,18.066,0.000
1586465458.895,-122.070,-43.945,-229.492,42.480,0.000
1586465458.899,-26.367,-35.645,-466.797,-5.371,0.000
1586465458.903,49.805,-28.320,-199.707,-42.969,0.000
1586465458.907,-30.273,-27.344,-97.656,0.488,0.000
1586465458.911,-120.605,-31.250,-236.816,32.227,0.000
1586465458.915,-49.805,-36.133,-196.777,-9.277,0.000
1586465458.918,55.176,-39.551,-30.762,-38.086,0.000
1586465458.922,1.465,-39.062,-187.988,-5.859,0.000
1586465458.926,-108.887,-36.621,-348.633,35.156,0.000
1586465458.930,-74.707,-37.109,-194.824,10.254,0.000
1586465458.934,39.551,-40.039,-76.172,-42.480,0.000
1586465458.938,19.531,-40.527,-292.969,-37.109,0.000
1586465458.942,-90.820,-37.598,-562.012,14.160,0.000
1586465458.946,-97.168,-36.621,-376.465,19.531,0.000
1586465458.950,15.137,-39.551,-54.688,-21.484,0.000
1586465458.954,41.016,-38.086,-364.258,-33.691,0.000
1586465458.958,-63.965,-36.621,-502.441,32.715,0.000
1586465458.961,-103.516,-37.109,-55.176,89.844,0.000
1586465458.965,-8.789,-32.227,120.605,40.039,0.000
1586465458.969,66.895,-29.785,-377.930,-14.648,0.000
1586465458.973,-7.324,-30.273,-706.055,33.203,0.000
1586465458.977,-98.633,-32.227,-71.777,86.426,0.000
1586465458.981,-35.645,-35.156,121.582,48.828,0.000
1586465458.985,60.547,-37.109,-357.422,8.301,0.000
1586465458.989,11.719,-36.621,-580.566,41.016,0.000
1586465458.993,-96.680,-34.180,-334.961,77.637,0.000
1586465458.997,-66.895,-38.574,44.434,55.664,0.000
1586465459.000,32.715,-43.945,-454.102,7.812,0.000
1586465459.004,16.113,-39.551,-800.781,-12.695,0.000
1586465459.008,-92.285,-34.180,-87.402,19.531,0.000
1586465459.012,-111.816,-36.133,76.660,47.852,0.000
1586465459.016,-8.789,-36.133,-177.246,0.977,0.000
1586465459.020,42.969,-32.715,-309.082,-30.762,0.000
1586465459.024,-56.152,-30.762,-176.270,25.879,0.000
1586465459.028,-134.766,-36.133,-46.875,43.457,0.000
1586465459.032,-42.480,-37.598,-217.773,-16.113,0.000
1586465459.036,33.691,-37.109,-526.855,-63.965,0.000
1586465459.040,-43.457,-36.621,-590.332,-46.875,0.000
1586465459.043,-122.070,-35.645,-425.781,17.578,0.000
1586465459.047,-50.293,-30.273,-720.703,3.906,0.000
1586465459.051,52.246,-27.344,-594.727,-62.988,0.000
1586465459.055,22.949,-29.297,-209.473,-46.387,0.000
1586465459.059,-77.148,-32.715,-307.617,12.695,0.000
1586465459.063,-79.102,-34.668,-362.793,17.090,0.000
1586465459.067,24.902,-32.715,-208.008,-37.109,0.000
1586465459.071,45.410,-30.273,-274.414,-39.062,0.000
1586465459.075,-74.707,-27.832,-385.254,24.902,0.000
1586465459.079,-110.352,-29.297,-307.129,30.762,0.000
1586465459.083,1.465,-32.715,-386.230,-17.090,0.000
1586465459.086,48.340,-31.738,-567.383,-37.598,0.000
1586465459.090,-34.180,-33.203,-847.656,0.000,0.000
1586465459.094,-100.098,-36.133,-739.746,41.992,0.000
1586465459.098,-27.344,-38.574,-215.820,33.203,0.000
1586465459.102,59.570,-41.992,-427.246,2.441,0.000
1586465459.106,2.441,-36.133,-624.512,26.367,0.000
1586465459.110,-105.957,-35.645,-330.566,65.918,0.000
1586465459.114,-64.941,-41.992,-81.055,38.086,0.000
1586465459.118,56.641,-41.504,-345.215,-13.184,0.000
1586465459.122,15.625,-36.133,-620.117,4.395,0.000
1586465459.125,-101.074,-31.738,-364.746,71.289,0.000
1586465459.129,-97.656,-32.715,-344.727,63.965,0.000
1586465459.133,12.695,-36.621,-599.121,18.066,0.000
1586465459.137,49.805,-35.645,-909.180,18.066,0.000
1586465459.141,-67.871,-31.738,-610.352,41.504,0.000
1586465459.145,-123.535,-31.738,-25.391,65.430,0.000
1586465459.149,-24.902,-30.762,-343.262,23.926,0.000
1586465459.153,53.223,-25.391,-810.547,-28.809,0.000
1586465459.157,-20.996,-21.484,-473.633,0.000,0.000
1586465459.161,-128.906,-27.832,-273.438,54.199,0.000
1586465459.165,-64.941,-28.809,-544.922,34.668,0.000
1586465459.168,50.293,-22.461,-614.746,-30.273,0.000
1586465459.172,8.789,-19.043,-425.781,-30.273,0.000
1586465459.176,-109.863,-24.414,-452.148,42.969,0.000
1586465459.180,-77.637,-28.320,-671.875,66.406,0.000
1586465459.184,40.039,-27.832,-636.230,-10.742,0.000
1586465459.188,31.738,-27.832,-466.797,-27.832,0.000
1586465459.192,-87.891,-30.273,-402.832,47.363,0.000
1586465459.196,-110.840,-32.715,-567.871,62.012,0.000
1586465459.200,13.672,-26.855,-681.152,-29.785,0.000
1586465459.204,68.359,-23.438,-543.945,-62.012,0.000
1586465459.208,-39.551,-23.926,-551.758,0.977,0.000
1586465459.211,-101.562,-26.855,-606.445,33.691,0.000
1586465459.215,-27.344,-27.344,-525.391,-6.836,0.000
1586465459.219,36.621,-26.855,-660.645,-39.062,0.000
1586465459.223,-20.508,-25.391,-905.762,5.371,0.000
1586465459.227,-106.445,-26.855,-914.551,69.824,0.000
1586465459.231,-41.992,-28.809,-597.168,32.715,0.000
1586465459.235,43.457,-38.574,-447.266,-41.504,0.000
1586465459.239,-5.371,-47.363,-728.516,-27.344,0.000
1586465459.243,-94.727,-43.457,-994.141,25.879,0.000
1586465459.247,-63.477,-36.133,-655.762,18.066,0.000
1586465459.250,52.246,-34.180,-346.680,-36.621,0.000
1586465459.254,34.180,-36.133,-752.441,-42.480,0.000
1586465459.258,-78.125,-33.691,-810.059,3.418,0.000
1586465459.262,-100.098,-30.762,-318.359,-3.418,0.000
1586465459.266,-3.906,-30.762,-278.320,-59.082,0.000
1586465459.270,41.504,-31.738,-788.086,-75.195,0.000
1586465459.274,-57.617,-27.832,-907.715,-35.645,0.000
1586465459.278,-107.910,-26.855,-464.844,0.000,0.000
1586465459.282,-12.207,-33.203,-484.375,-35.645,0.000
1586465459.286,55.176,-37.598,-878.418,-67.871,0.000
1586465459.290,-27.832,-30.762,-858.398,-36.133,0.000
1586465459.293,-129.395,-29.297,-243.164,-3.906,0.000
1586465459.297,-71.777,-35.156,-123.047,-31.250,0.000
1586465459.301,30.762,-32.227,-516.113,-83.984,0.000
1586465459.305,-15.625,-32.227,-455.566,-82.520,0.000
1586465459.309,-125.488,-34.180,-84.473,-33.203,0.000
1586465459.313,-106.934,-34.180,-49.805,-30.762,0.000
1586465459.317,2.441,-36.133,-730.469,-77.637,0.000
1586465459.321,6.836,-27.832,-897.461,-94.238,0.000
1586465459.325,-105.957,-25.391,-201.660,-43.945,0.000
1586465459.329,-135.742,-33.203,-125.488,-9.277,0.000
1586465459.333,-29.297,-29.785,-757.324,-53.223,0.000
1586465459.336,26.367,-27.344,-715.820,-89.355,0.000
1586465459.340,-59.570,-30.273,-313.965,-56.641,0.000
1586465459.344,-125.977,-32.227,-309.570,-8.301,0.000
1586465459.348,-41.992,-34.668,-208.008,-29.785,0.000
1586465459.352,37.598,-31.250,-92.285,-96.680,0.000
1586465459.356,-32.715,-25.879,-79.590,-94.727,0.000
1586465459.360,-132.812,-28.809,-144.043,-42.969,0.000
1586465459.364,-90.820,-33.691,-293.457,-56.152,0.000
1586465459.368,19.531,-31.250,-297.363,-101.074,0.000
1586465459.372,-11.719,-34.180,-218.262,-88.867,0.000
1586465459.375,-121.094,-30.273,-334.473,-43.945,0.000
1586465459.379,-111.816,-24.414,-186.035,-45.410,0.000
1586465459.383,-4.883,-26.367,35.645,-96.191,0.000
1586465459.387,16.113,-27.832,-150.391,-96.680,0.000
1586465459.391,-96.191,-28.809,-409.180,-33.203,0.000
1586465459.395,-129.883,-27.832,-240.723,-2.930,0.000
1586465459.399,-16.602,-27.344,-143.555,-55.176,0.000
1586465459.403,36.133,-23.438,-305.176,-95.215,0.000
1586465459.407,-61.523,-24.902,-607.422,-62.012,0.000
1586465459.411,-136.230,-29.785,-562.012,-27.832,0.000
1586465459.415,-59.082,-28.320,-228.027,-57.129,0.000
1586465459.418,42.480,-22.461,-298.828,-98.633,0.000
1586465459.422,-14.648,-22.949,-829.590,-61.035,0.000
1586465459.426,-125.000,-19.043,-600.586,-4.883,0.000
1586465459.430,-79.102,-18.066,138.184,-27.832,0.000
1586465459.434,37.598,-25.879,-271.484,-97.656,0.000
1586465459.438,23.926,-23.926,-735.840,-96.191,0.000
1586465459.442,-83.008,-16.602,-169.434,-20.508,0.000
1586465459.446,-82.031,-17.578,184.082,-2.930,0.000
1586465459.450,34.180,-22.949,-196.777,-63.477,0.000
1586465459.454,65.918,-25.879,-446.289,-74.219,0.000
1586465459.458,-46.875,-28.809,-300.293,-4.395,0.000
1586465459.461,-99.609,-32.715,-155.273,30.273,0.000
1586465459.465,3.418,-33.691,-539.551,-3.418,0.000
1586465459.469,76.172,-27.832,-797.852,-37.109,0.000
1586465459.473,-6.348,-26.855,-223.145,-20.508,0.000
1586465459.477,-88.867,-33.691,90.332,20.020,0.000
1586465459.481,-22.949,-36.133,-65.918,2.441,0.000
1586465459.485,64.941,-35.156,-303.711,-41.992,0.000
1586465459.489,2.441,-33.203,-162.598,-23.926,0.000
1586465459.493,-106.934,-31.250,-70.801,28.809,0.000
1586465459.497,-73.730,-33.203,-166.504,28.809,0.000
1586465459.500,42.969,-36.621,-179.688,-15.625,0.000
1586465459.504,34.180,-36.621,-389.160,-20.996,0.000
1586465459.508,-89.844,-37.109,-465.820,35.156,0.000
1586465459.512,-113.281,-36.133,-602.539,54.199,0.000
1586465459.516,3.418,-37.109,-611.816,-0.977,0.000
1586465459.520,47.363,-36.133,-254.395,-30.273,0.000
1586465459.524,-58.594,-35.156,-242.676,15.137,0.000
1586465459.528,-111.328,-37.598,-197.266,45.410,0.000
1586465459.532,-9.766,-35.156,-36.133,-5.371,0.000
1586465459.536,72.266,-33.691,-181.152,-41.016,0.000
1586465459.540,-3.906,-33.203,-395.996,2.441,0.000
1586465459.543,-90.820,-31.738,-243.164,43.945,0.000
1586465459.547,-19.043,-32.715,-35.645,15.137,0.000
1586465459.551,85.449,-34.668,-383.789,-35.156,0.000
1586465459.555,31.738,-36.133,-871.094,-19.043,0.000
1586465459.559,-83.008,-30.762,-732.910,39.551,0.000
1586465459.563,-62.012,-28.809,-109.863,27.832,0.000
1586465459.567,61.035,-31.250,-174.316,-28.809,0.000
1586465459.571,62.500,-27.344,-504.395,-47.363,0.000
1586465459.575,-50.781,-23.926,-508.301,11.719,0.000
1586465459.579,-59.082,-23.438,-196.777,61.523,0.000
1586465459.583,38.574,-25.879,-193.848,-2.930,0.000
1586465459.586,62.500,-23.926,-524.902,-67.383,0.000
1586465459.590,-41.992,-25.391,-399.414,-42.969,0.000
1586465459.594,-102.539,-31.250,-102.539,-7.324,0.000
1586465459.598,-18.066,-35.645,-270.020,-41.504,0.000
1586465459.602,57.617,-34.180,-680.176,-89.355,0.000
1586465459.606,-11.230,-30.762,-431.641,-55.664,0.000
1586465459.610,-104.492,-31.250,-5.859,5.371,0.000
1586465459.614,-48.828,-29.297,-188.477,5.859,0.000
1586465459.618,52.246,-28.809,-772.461,-30.273,0.000
1586465459.622,19.531,-27.344,-630.859,-12.207,0.000
1586465459.625,-98.145,-32.227,-123.047,44.434,0.000
1586465459.629,-84.961,-36.621,-177.246,38.086,0.000
1586465459.633,36.621,-32.715,-520.020,-29.297,0.000
1586465459.637,41.504,-33.203,-474.121,-40.527,0.000
1586465459.641,-75.684,-36.621,-164.062,18.066,0.000
1586465459.645,-114.746,-38.574,-445.801,41.504,0.000
1586465459.649,-8.789,-32.227,-718.750,-3.906,0.000
1586465459.653,49.805,-24.902,-393.555,-35.156,0.000
1586465459.657,-44.922,-29.297,-231.934,2.930,0.000
1586465459.661,-117.188,-30.273,-386.230,41.016,0.000
1586465459.665,-36.133,-27.344,-372.070,1.953,0.000
1586465459.668,50.781,-29.785,-342.773,-56.152,0.000
1586465459.672,-9.766,-32.715,-446.777,-44.922,0.000
1586465459.676,-109.863,-32.715,-519.043,3.906,0.000
1586465459.680,-64.453,-32.227,-365.723,-8.789,0.000
1586465459.684,51.270,-33.691,-222.168,-82.031,0.000
1586465459.688,33.203,-34.180,-455.566,-93.262,0.000
1586465459.692,-81.543,-34.180,-628.906,-24.414,0.000
1586465459.696,-78.613,-31.250,-433.105,-4.883,0.000
1586465459.700,33.203,-30.762,-386.230,-59.570,0.000
1586465459.704,49.316,-32.227,-641.113,-62.012,0.000
1586465459.708,-54.688,-28.809,-780.273,-6.348,0.000
1586465459.711,-102.539,-25.391,-324.707,9.766,0.000
1586465459.715,-8.789,-29.297,-34.668,-28.320,0.000
1586465459.719,63.477,-27.832,-388.184,-47.363,0.000
1586465459.723,-18.066,-25.391,-429.688,11.719,0.000
1586465459.727,-95.215,-26.367,-120.605,67.383,0.000
1586465459.731,-18.066,-25.391,-86.426,43.945,0.000
1586465459.735,81.543,-24.902,-438.477,5.859,0.000
1586465459.739,25.391,-25.391,-732.910,26.367,0.000
1586465459.743,-82.520,-23.926,-395.996,79.590,0.000
1586465459.747,-45.898,-20.996,-13.184,79.590,0.000
1586465459.750,62.500,-25.391,-564.941,36.621,0.000
1586465459.754,42.480,-21.973,-847.656,38.574,0.000
1586465459.758,-72.754,-19.531,-206.543,85.938,0.000
1586465459.762,-79.590,-27.832,-13.184,106.934,0.000
1586465459.766,21.484,-31.738,-322.266,50.781,0.000
1586465459.770,52.734,-31.250,-443.848,11.719,0.000
1586465459.774,-44.922,-32.227,-184.570,54.688,0.000
1586465459.778,-107.910,-36.133,-136.719,97.656,0.000
1586465459.782,-9.766,-34.180,-358.398,68.848,0.000
1586465459.786,65.430,-32.715,-573.242,32.715,0.000
1586465459.790,-25.391,-33.203,-602.539,64.453,0.000
1586465459.793,-108.398,-28.320,-428.223,107.422,0.000
1586465459.797,-43.457,-25.879,-779.297,74.707,0.000
1586465459.801,54.688,-22.461,-766.602,13.184,0.000
1586465459.805,8.789,-20.020,-337.891,26.367,0.000
1586465459.809,-107.422,-28.320,-441.895,88.379,0.000
1586465459.813,-84.473,-32.715,-401.367,91.797,0.000
1586465459.817,28.809,-30.762,-214.844,40.527,0.000
1586465459.821,26.855,-29.297,-271.484,33.691,0.000
1586465459.825,-89.355,-30.762,-380.371,67.871,0.000
1586465459.829,-107.422,-28.320,-291.504,71.777,0.000
1586465459.833,6.348,-27.832,-320.801,25.391,0.000
1586465459.836,45.410,-29.297,-601.074,-8.789,0.000
1586465459.840,-55.176,-30.762,-643.555,21.973,0.000
1586465459.844,-111.328,-26.367,-310.547,68.359,0.000
1586465459.848,-25.879,-24.902,-78.125,31.250,0.000
1586465459.852,49.805,-32.227,-198.730,-24.414,0.000
1586465459.856,-20.996,-31.250,-727.051,15.625,0.000
1586465459.860,-115.234,-27.832,-773.438,69.336,0.000
1586465459.864,-59.570,-31.250,-104.004,44.434,0.000
1586465459.868,34.668,-38.086,-252.441,-15.137,0.000
1586465459.872,-1.465,-38.086,-476.074,1.465,0.000
1586465459.875,-109.863,-35.645,-91.309,77.148,0.000
1586465459.879,-104.004,-35.156,-38.086,80.566,0.000
1586465459.883,7.324,-34.668,-359.375,28.320,0.000
1586465459.887,12.207,-34.180,-786.133,20.508,0.000
1586465459.891,-98.145,-33.691,-474.121,69.824,0.000
1586465459.895,-115.723,-36.133,127.930,99.121,0.000
1586465459.899,5.371,-35.645,-101.562,63.477,0.000
1586465459.903,63.477,-36.133,-395.508,35.156,0.000
1586465459.907,-29.297,-34.668,-215.332,76.660,0.000
1586465459.911,-96.680,-36.621,103.516,114.746,0.000
1586465459.915,-8.789,-41.504,-120.605,72.266,0.000
1586465459.918,82.520,-38.574,-353.516,20.996,0.000
1586465459.922,19.043,-35.156,-193.848,54.688,0.000
1586465459.926,-86.914,-37.598,-158.203,112.305,0.000
1586465459.930,-42.969,-42.480,-544.434,98.145,0.000
1586465459.934,62.988,-40.527,-813.965,35.645,0.000
1586465459.938,41.504,-38.574,-310.059,24.902,0.000
1586465459.942,-60.547,-39.062,10.254,83.496,0.000
1586465459.946,-55.176,-37.109,-84.961,86.914,0.000
1586465459.950,57.617,-38.086,-174.316,26.855,0.000
1586465459.954,64.941,-43.457,-140.625,3.906,0.000
1586465459.958,-57.129,-43.457,-146.973,49.805,0.000
1586465459.961,-105.957,-42.480,-170.410,69.824,0.000
1586465459.965,-12.207,-42.480,-144.531,15.137,0.000
1586465459.969,47.363,-37.109,-253.418,-19.043,0.000
1586465459.973,-41.504,-34.180,-416.504,18.555,0.000
1586465459.977,-124.023,-35.645,-800.781,65.918,0.000
1586465459.981,-45.898,-33.691,-651.367,38.574,0.000
1586465459.985,60.059,-29.297,-301.270,-13.672,0.000
1586465459.989,7.324,-33.691,-555.176,10.254,0.000
1586465459.993,-96.680,-34.180,-387.207,60.059,0.000
1586465459.997,-53.711,-27.832,-28.320,48.340,0.000
1586465460.000,49.805,-28.320,-98.633,-5.859,0.000
1586465460.004,29.297,-32.227,-433.594,-6.348,0.000
1586465460.008,-75.684,-28.809,-345.215,60.547,0.000
1586465460.012,-82.520,-30.273,41.504,72.754,0.000
1586465460.016,29.297,-36.621,-3.906,17.578,0.000
1586465460.020,53.711,-35.645,-613.281,5.371,0.000
1586465460.024,-57.617,-37.109,-745.605,53.223,0.000
1586465460.028,-109.863,-38.574,-119.629,72.754,0.000
1586465460.032,-6.836,-33.691,11.719,27.344,0.000
1586465460.036,67.383,-30.273,-524.902,-2.930,0.000
1586465460.040,-19.531,-28.320,-536.621,33.691,0.000
1586465460.043,-104.004,-24.902,-73.730,77.637,0.000
1586465460.047,-36.133,-27.832,-221.680,53.711,0.000
1586465460.051,61.035,-33.203,-451.660,-12.695,0.000
1586465460.055,15.137,-35.156,-391.602,-3.418,0.000
1586465460.059,-95.703,-33.691,-132.324,59.570,0.000
1586465460.063,-72.266,-38.086,-160.645,59.570,0.000
1586465460.067,48.340,-38.086,-588.379,3.906,0.000
1586465460.071,51.270,-33.203,-637.695,-10.254,0.000
1586465460.075,-60.547,-31.738,-199.707,43.457,0.000
1586465460.079,-78.125,-30.762,-176.270,66.895,0.000
1586465460.083,27.832,-30.762,-626.465,23.438,0.000
1586465460.086,62.988,-29.297,-528.809,-20.020,0.000
1586465460.090,-39.062,-31.250,-180.664,1.953,0.000
1586465460.094,-96.191,-34.668,-243.652,30.273,0.000
1586465460.098,-7.812,-32.715,-323.730,-4.883,0.000
1586465460.102,68.848,-32.227,-229.980,-51.270,0.000
1586465460.106,-2.441,-36.133,-391.602,-26.367,0.000
1586465460.110,-97.656,-34.668,-455.566,21.484,0.000
1586465460.114,-43.945,-31.250,-437.012,0.000,0.000
1586465460.118,62.988,-26.855,-445.801,-52.734,0.000
1586465460.122,19.531,-25.879,-318.359,-55.176,0.000
1586465460.125,-104.492,-34.180,-348.145,-13.672,0.000
1586465460.129,-90.820,-37.109,-238.770,-18.555,0.000
1586465460.133,25.879,-31.738,-101.562,-79.590,0.000
1586465460.137,35.156,-28.320,-143.066,-95.703,0.000
1586465460.141,-83.008,-30.273,-589.355,-30.762,0.000
1586465460.145,-111.816,-36.621,-584.961,-1.953,0.000
1586465460.149,11.230,-34.180,-29.297,-59.082,0.000
1586465460.153,67.871,-30.762,-266.602,-99.121,0.000
1586465460.157,-41.016,-33.691,-496.094,-62.500,0.000
1586465460.161,-124.023,-36.133,-380.371,-18.555,0.000
1586465460.165,-41.504,-36.621,-312.988,-53.223,0.000
1586465460.168,56.641,-35.645,-515.137,-99.121,0.000
1586465460.172,-16.602,-33.691,-840.820,-70.312,0.000
1586465460.176,-124.512,-32.227,-427.246,-27.344,0.000
1586465460.180,-71.289,-34.668,33.203,-49.316,0.000
1586465460.184,35.156,-34.180,-309.082,-105.957,0.000
1586465460.188,5.371,-34.668,-444.824,-94.238,0.000
1586465460.192,-104.492,-36.133,-120.605,-32.227,0.000
1586465460.196,-94.238,-36.621,41.016,-43.457,0.000
1586465460.200,23.926,-37.109,-273.438,-113.770,0.000
1586465460.204,36.621,-35.645,-508.301,-134.277,0.000
1586465460.208,-78.125,-32.227,-420.898,-84.961,0.000
1586465460.211,-113.281,-33.691,-281.738,-66.406,0.000
1586465460.215,-9.277,-38.086,-570.801,-112.305,0.000
1586465460.219,41.016,-36.621,-912.109,-137.695,0.000
1586465460.223,-52.246,-36.133,-558.105,-107.422,0.000
1586465460.227,-116.211,-34.668,-189.453,-82.031,0.000
1586465460.231,-34.668,-31.738,-254.395,-109.863,0.000
1586465460.235,51.758,-34.668,-384.277,-150.879,0.000
1586465460.239,-6.348,-32.715,-229.492,-136.719,0.000
1586465460.243,-107.910,-31.250,-136.230,-88.867,0.000
1586465460.247,-66.406,-32.227,-228.516,-97.168,0.000
1586465460.250,41.504,-28.320,-267.578,-151.855,0.000
1586465460.254,21.484,-28.320,-445.312,-152.344,0.000
1586465460.258,-95.215,-36.621,-546.387,-88.867,0.000
1586465460.262,-101.562,-41.992,-706.543,-64.941,0.000
1586465460.266,17.578,-38.086,-556.641,-105.469,0.000
1586465460.270,46.875,-36.621,-238.770,-123.047,0.000
1586465460.274,-62.500,-36.133,-395.020,-83.008,0.000
1586465460.278,-107.422,-39.062,-326.172,-53.711,0.000
1586465460.282,-13.672,-42.480,-267.090,-101.562,0.000
1586465460.286,42.969,-40.527,-343.750,-141.113,0.000
1586465460.290,-41.016,-41.016,-518.066,-98.633,0.000
1586465460.293,-118.164,-37.109,-447.754,-47.363,0.000
1586465460.297,-51.758,-34.668,-75.684,-61.523,0.000
1586465460.301,40.527,-35.156,-286.133,-111.816,0.000
1586465460.305,-10.742,-35.156,-780.273,-103.516,0.000
1586465460.309,-120.605,-35.645,-725.098,-53.223,0.000
1586465460.313,-87.891,-33.203,-3.418,-68.848,0.000
1586465460.317,27.344,-36.621,-61.523,-130.371,0.000
1586465460.321,16.602,-34.668,-405.273,-133.789,0.000
1586465460.325,-95.703,-31.250,-264.648,-69.824,0.000
1586465460.329,-101.074,-31.738,-26.367,-38.574,0.000
1586465460.333,15.625,-32.715,-69.336,-82.520,0.000
1586465460.336,52.246,-29.297,-393.555,-103.516,0.000
1586465460.340,-47.852,-26.367,-464.844,-56.641,0.000
1586465460.344,-103.027,-32.227,-195.312,-20.996,0.000
1586465460.348,-5.859,-36.133,-268.066,-63.965,0.000
1586465460.352,68.359,-34.180,-792.480,-107.910,0.000
1586465460.356,-19.531,-39.062,-639.160,-66.895,0.000
1586465460.360,-113.281,-41.016,-24.902,-12.695,0.000
1586465460.364,-53.711,-39.551,-52.734,-37.109,0.000
1586465460.368,46.875,-44.434,-354.004,-80.078,0.000
1586465460.372,20.020,-43.457,-237.793,-30.273,0.000
1586465460.375,-94.238,-37.598,-15.137,25.879,0.000
1586465460.379,-114.258,-39.062,-119.629,-17.090,0.000
1586465460.383,-13.184,-42.969,-258.301,-80.566,0.000
1586465460.387,-3.418,-39.551,-197.754,-80.566,0.000
1586465460.391,-133.301,-38.086,-81.543,-37.109,0.000
1586465460.395,-167.480,-37.109,-333.008,-20.508,0.000
1586465460.399,-62.012,-30.762,-645.996,-81.055,0.000
1586465460.403,-17.090,-34.180,-450.195,-117.676,0.000
1586465460.407,-110.840,-36.621,-222.168,-71.777,0.000
1586465460.411,-184.082,-30.762,-265.137,-42.969,0.000
1586465460.415,-96.680,-34.668,-280.273,-65.918,0.000
1586465460.418,-10.742,-34.668,-238.281,-102.051,0.000
1586465460.422,-76.660,-31.250,-209.961,-71.777,0.000
1586465460.426,-171.387,-36.621,-575.684,-13.672,0.000
1586465460.430,-116.699,-33.203,-554.688,-31.738,0.000
1586465460.434,2.930,-27.832,-86.426,-81.543,0.000
1586465460.438,-18.066,-27.344,-277.344,-61.523,0.000
1586465460.442,-131.836,-27.832,-494.629,6.836,0.000
1586465460.446,-117.188,-27.344,-307.617,17.090,0.000
1586465460.450,9.766,-22.461,-46.875,-54.688,0.000
1586465460.454,22.949,-23.438,-312.988,-92.285,0.000
1586465460.458,-93.262,-29.785,-738.281,-43.945,0.000
1586465460.461,-125.488,-27.832,-335.449,-17.578,0.000
