timestamps,TP9,AF7,AF8,TP10,Right AUX
1586465045.457,-201.660,-55.176,-810.059,-94.238,0.000
1586465045.461,45.410,97.656,-790.527,-141.602,0.000
1586465045.464,145.020,134.277,-758.301,74.707,0.000
1586465045.468,-83.496,38.574,-762.695,148.438,0.000
1586465045.472,-217.773,-210.449,-855.957,-60.059,0.000
1586465045.476,-8.789,-259.766,-839.355,-174.316,0.000
1586465045.480,168.457,-496.094,-784.180,10.254,0.000
1586465045.484,-7.324,-423.340,-787.109,149.414,0.000
1586465045.488,-222.168,-42.969,-812.988,-8.789,0.000
1586465045.492,-90.332,-155.762,-823.242,-171.875,0.000
1586465045.496,142.090,74.219,-758.789,-81.055,0.000
1586465045.500,59.082,386.719,-695.312,135.742,0.000
1586465045.503,-181.641,216.309,-772.949,64.941,0.000
1586465045.507,-155.762,-147.461,-860.840,-162.598,0.000
1586465045.511,100.098,22.461,-809.082,-115.234,0.000
1586465045.515,145.996,400.879,-704.590,122.559,0.000
1586465045.519,-122.070,151.855,-802.734,100.098,0.000
1586465045.523,-218.262,-435.547,-881.348,-111.328,0.000
1586465045.527,18.555,-481.934,-839.355,-190.918,0.000
1586465045.531,129.395,231.445,-711.914,9.277,0.000
1586465045.535,-76.172,434.082,-720.215,117.676,0.000
1586465045.539,-209.961,-529.297,-940.430,-49.805,0.000
1586465045.543,-37.598,-700.195,-864.746,-176.270,0.000
1586465045.546,130.371,321.777,-645.996,-56.152,0.000
1586465045.550,3.418,352.051,-754.883,134.766,0.000
1586465045.554,-201.172,-349.121,-901.367,32.715,0.000
1586465045.558,-99.609,-348.145,-833.984,-177.734,0.000
1586465045.562,124.023,348.633,-671.875,-131.836,0.000
1586465045.566,77.637,413.086,-728.516,84.961,0.000
1586465045.570,-156.738,-515.625,-893.066,84.473,0.000
1586465045.574,-163.574,-708.496,-853.027,-148.438,0.000
1586465045.578,86.426,55.176,-769.531,-202.637,0.000
1586465045.582,136.230,148.438,-791.016,37.598,0.000
1586465045.586,-95.215,-364.746,-843.750,89.844,0.000
1586465045.589,-192.871,-412.598,-849.121,-104.492,0.000
1586465045.593,4.395,139.160,-735.840,-200.195,0.000
1586465045.597,152.344,205.078,-778.809,-0.488,0.000
1586465045.601,-29.297,-186.523,-886.719,146.973,0.000
1586465045.605,-208.008,-229.980,-849.609,-33.691,0.000
1586465045.609,-51.758,145.508,-752.441,-203.125,0.000
1586465045.613,165.527,147.461,-790.527,-56.152,0.000
1586465045.617,53.711,-647.461,-930.664,145.996,0.000
1586465045.621,-196.777,-669.434,-866.211,14.648,0.000
1586465045.625,-119.629,-35.156,-779.297,-201.172,0.000
1586465045.628,125.977,-69.824,-824.707,-131.348,0.000
1586465045.632,103.027,-476.562,-916.992,115.723,0.000
1586465045.636,-159.180,-387.207,-864.746,92.773,0.000
1586465045.640,-190.430,-417.480,-863.770,-138.184,0.000
1586465045.644,56.641,-85.449,-793.945,-195.312,0.000
1586465045.648,143.066,420.410,-672.363,20.508,0.000
1586465045.652,-59.570,333.496,-763.184,99.121,0.000
1586465045.656,-180.176,-71.289,-856.445,-100.098,0.000
1586465045.660,4.883,-177.246,-852.539,-207.520,0.000
1586465045.664,161.133,-9.766,-803.711,-6.836,0.000
1586465045.668,-8.789,104.492,-754.883,142.578,0.000
1586465045.671,-207.520,-69.336,-842.773,-18.066,0.000
1586465045.675,-51.758,-732.422,-901.855,-188.477,0.000
1586465045.679,170.898,-257.812,-744.629,-87.891,0.000
1586465045.683,64.941,600.098,-669.922,104.492,0.000
1586465045.687,-179.199,-29.297,-877.930,37.598,0.000
1586465045.691,-139.648,-331.055,-888.672,-158.203,0.000
1586465045.695,101.074,108.398,-751.953,-153.809,0.000
1586465045.699,116.211,312.012,-737.305,75.195,0.000
1586465045.703,-120.117,-51.758,-803.711,93.750,0.000
1586465045.707,-178.223,-314.453,-871.582,-135.254,0.000
1586465045.711,63.965,-46.875,-838.867,-200.195,0.000
1586465045.714,161.621,250.977,-743.164,32.227,0.000
1586465045.718,-54.688,30.273,-740.234,131.348,0.000
1586465045.722,-189.453,-339.355,-839.355,-81.055,0.000
1586465045.726,-19.043,-118.652,-843.750,-232.422,0.000
1586465045.730,163.086,141.602,-775.879,-62.500,0.000
1586465045.734,3.418,-263.672,-825.684,131.348,0.000
1586465045.738,-186.523,-638.184,-910.645,-2.930,0.000
1586465045.742,-76.660,0.977,-782.227,-220.703,0.000
1586465045.746,111.816,444.336,-701.172,-143.555,0.000
1586465045.750,58.594,165.527,-799.316,103.027,0.000
1586465045.753,-178.711,-249.023,-847.168,57.617,0.000
1586465045.757,-149.414,-413.086,-877.441,-159.180,0.000
1586465045.761,94.727,-148.926,-834.473,-149.902,0.000
1586465045.765,142.090,-186.523,-762.695,86.914,0.000
1586465045.769,-104.004,-355.469,-818.359,113.770,0.000
1586465045.773,-201.172,-17.090,-833.496,-121.582,0.000
1586465045.777,25.391,114.258,-794.922,-202.637,0.000
1586465045.781,151.855,312.988,-747.559,19.531,0.000
1586465045.785,-48.340,354.004,-729.980,131.348,0.000
1586465045.789,-211.914,-2.441,-836.426,-34.180,0.000
1586465045.793,-43.457,-218.262,-864.258,-178.223,0.000
1586465045.796,138.672,116.699,-772.461,-41.992,0.000
1586465045.800,19.531,337.891,-749.512,145.996,0.000
1586465045.804,-173.828,-247.070,-886.719,52.734,0.000
1586465045.808,-95.703,-782.227,-937.012,-160.156,0.000
1586465045.812,135.742,-706.055,-872.559,-133.789,0.000
1586465045.816,82.031,74.219,-752.930,73.242,0.000
1586465045.820,-188.965,-79.590,-860.840,30.762,0.000
1586465045.824,-175.781,-689.453,-880.859,-165.039,0.000
1586465045.828,62.988,-105.957,-736.328,-188.477,0.000
1586465045.832,128.906,521.973,-679.688,27.832,0.000
1586465045.836,-100.586,240.234,-787.109,81.055,0.000
1586465045.839,-238.281,-281.250,-877.930,-128.418,0.000
1586465045.843,-34.668,-29.297,-733.398,-194.336,0.000
1586465045.847,144.531,539.551,-670.898,13.184,0.000
1586465045.851,-62.012,150.391,-823.242,126.465,0.000
1586465045.855,-264.160,-602.051,-886.230,-39.062,0.000
1586465045.859,-98.633,-231.934,-757.324,-205.566,0.000
1586465045.863,106.934,514.648,-660.156,-77.148,0.000
1586465045.867,4.395,301.758,-768.066,119.629,0.000
1586465045.871,-215.332,-655.273,-883.301,32.715,0.000
1586465045.875,-154.785,-525.879,-817.383,-164.551,0.000
1586465045.878,85.449,450.684,-672.363,-114.746,0.000
1586465045.882,64.453,351.074,-753.418,113.770,0.000
1586465045.886,-181.641,-342.773,-938.477,69.336,0.000
1586465045.890,-208.496,-336.426,-854.492,-175.293,0.000
1586465045.894,25.879,259.766,-704.102,-217.285,0.000
1586465045.898,120.605,70.312,-811.523,42.480,0.000
1586465045.902,-126.953,-520.508,-924.805,117.188,0.000
1586465045.906,-255.371,-312.988,-847.168,-132.324,0.000
1586465045.910,-43.945,25.391,-831.543,-219.727,0.000
1586465045.914,120.117,-152.832,-832.520,8.301,0.000
1586465045.918,-42.480,-270.996,-841.797,126.953,0.000
1586465045.921,-248.535,-161.133,-847.168,-41.992,0.000
1586465045.925,-121.094,-177.246,-853.516,-201.660,0.000
1586465045.929,99.609,-32.715,-819.336,-94.727,0.000
1586465045.933,6.348,-87.402,-839.355,121.094,0.000
1586465045.937,-229.980,-256.348,-892.090,45.898,0.000
1586465045.941,-181.152,-296.875,-881.836,-177.246,0.000
1586465045.945,73.242,-220.703,-818.359,-162.109,0.000
1586465045.949,78.125,87.402,-731.445,58.594,0.000
1586465045.953,-182.617,202.148,-777.344,51.270,0.000
1586465045.957,-224.609,-153.320,-862.793,-135.742,0.000
1586465045.961,29.785,-125.488,-760.254,-172.852,0.000
1586465045.964,141.113,346.191,-673.828,38.574,0.000
1586465045.968,-86.426,301.270,-789.551,137.207,0.000
1586465045.972,-226.562,-295.410,-913.086,-63.965,0.000
1586465045.976,-34.180,-396.973,-840.820,-210.449,0.000
1586465045.980,125.488,337.402,-659.668,-34.180,0.000
1586465045.984,-27.832,327.637,-788.574,131.836,0.000
1586465045.988,-218.750,-501.953,-898.438,-17.090,0.000
1586465045.992,-80.566,-777.344,-878.906,-161.621,0.000
1586465045.996,150.879,-75.684,-746.094,-69.824,0.000
1586465046.000,72.754,470.215,-682.129,105.957,0.000
1586465046.003,-184.570,-301.270,-904.297,72.266,0.000
1586465046.007,-154.785,-916.504,-952.148,-141.113,0.000
1586465046.011,80.078,40.527,-749.512,-159.668,0.000
1586465046.015,83.008,549.316,-750.000,72.754,0.000
1586465046.019,-139.160,-67.871,-863.770,77.637,0.000
1586465046.023,-202.148,-393.555,-899.902,-114.258,0.000
1586465046.027,7.324,130.371,-761.719,-175.781,0.000
1586465046.031,121.094,566.406,-681.152,5.859,0.000
1586465046.035,-82.031,162.109,-842.773,119.629,0.000
1586465046.039,-228.516,-438.477,-920.410,-42.480,0.000
1586465046.043,-55.664,-324.707,-858.887,-204.102,0.000
1586465046.046,119.629,209.473,-772.949,-48.828,0.000
1586465046.050,-6.348,-390.137,-860.352,188.477,0.000
1586465046.054,-206.055,-786.133,-912.109,44.922,0.000
1586465046.058,-120.605,-14.160,-791.992,-194.336,0.000
1586465046.062,120.117,301.758,-762.695,-99.121,0.000
1586465046.066,104.492,134.277,-837.402,104.980,0.000
1586465046.070,-160.645,-90.332,-860.352,61.523,0.000
1586465046.074,-194.336,-143.555,-845.703,-150.879,0.000
1586465046.078,39.551,33.691,-803.223,-164.062,0.000
1586465046.082,100.098,133.301,-831.543,77.637,0.000
1586465046.086,-112.793,-120.117,-887.207,115.723,0.000
1586465046.089,-195.801,-497.559,-925.293,-92.285,0.000
1586465046.093,20.508,-517.090,-866.211,-170.410,0.000
1586465046.097,150.391,-117.188,-782.715,21.484,0.000
1586465046.101,-73.242,-125.977,-829.590,145.508,0.000
1586465046.105,-241.699,-648.926,-920.410,-15.625,0.000
1586465046.109,-83.496,-570.312,-842.285,-171.875,0.000
1586465046.113,120.117,48.828,-710.938,-26.855,0.000
1586465046.117,-1.465,405.762,-754.883,128.906,0.000
1586465046.121,-225.586,-29.785,-880.371,9.277,0.000
1586465046.125,-123.047,-785.645,-936.035,-152.344,0.000
1586465046.128,104.492,-445.312,-847.656,-116.699,0.000
1586465046.132,69.824,192.383,-805.664,122.559,0.000
1586465046.136,-169.922,-216.309,-888.184,102.539,0.000
1586465046.140,-179.199,-716.309,-868.164,-165.527,0.000
1586465046.144,52.734,-415.039,-816.406,-193.359,0.000
1586465046.148,109.375,370.117,-754.395,28.809,0.000
1586465046.152,-119.141,91.797,-820.312,86.426,0.000
1586465046.156,-232.910,-484.863,-929.688,-106.445,0.000
1586465046.160,-35.156,7.812,-774.414,-217.285,0.000
1586465046.164,138.184,444.824,-702.148,-41.992,0.000
1586465046.168,-21.973,-62.012,-853.027,136.719,0.000
1586465046.171,-224.121,-396.484,-907.715,-21.973,0.000
1586465046.175,-93.262,-78.125,-831.055,-204.590,0.000
1586465046.179,138.672,59.570,-813.477,-50.781,0.000
1586465046.183,73.242,-366.211,-875.488,151.855,0.000
1586465046.187,-210.938,-605.957,-900.879,21.484,0.000
1586465046.191,-192.383,-146.484,-814.453,-186.035,0.000
1586465046.195,102.539,236.328,-756.348,-128.418,0.000
1586465046.199,129.883,-167.480,-845.215,118.164,0.000
1586465046.203,-125.000,-616.211,-926.758,104.004,0.000
1586465046.207,-195.312,-172.363,-823.730,-140.137,0.000
1586465046.211,58.594,266.602,-760.254,-182.617,0.000
1586465046.214,157.715,224.609,-765.625,38.574,0.000
1586465046.218,-78.613,-43.457,-791.016,105.469,0.000
1586465046.222,-225.098,-295.898,-861.816,-84.961,0.000
1586465046.226,-50.781,-169.434,-844.238,-214.844,0.000
1586465046.230,145.996,-279.785,-816.895,-26.855,0.000
1586465046.234,-1.465,-262.695,-819.336,125.977,0.000
1586465046.238,-224.609,37.109,-847.168,-47.363,0.000
1586465046.242,-96.191,-146.484,-888.672,-211.914,0.000
1586465046.246,138.184,229.492,-752.930,-104.980,0.000
1586465046.250,75.195,599.121,-678.711,101.562,0.000
1586465046.253,-165.527,168.457,-839.355,20.508,0.000
1586465046.257,-140.625,-369.629,-925.781,-169.922,0.000
1586465046.261,113.770,-46.875,-832.031,-140.625,0.000
1586465046.265,113.281,501.465,-720.215,76.172,0.000
1586465046.269,-145.020,170.898,-840.332,86.914,0.000
1586465046.273,-190.430,-667.969,-966.797,-94.727,0.000
1586465046.277,38.574,-672.852,-899.414,-149.902,0.000
1586465046.281,141.113,138.184,-737.793,36.621,0.000
1586465046.285,-54.199,251.465,-772.461,144.043,0.000
1586465046.289,-209.473,-549.316,-907.715,-51.758,0.000
1586465046.293,-49.805,-536.133,-838.867,-207.520,0.000
1586465046.296,138.184,468.750,-671.387,-63.477,0.000
1586465046.300,20.020,416.504,-773.926,117.188,0.000
1586465046.304,-180.176,-272.461,-892.090,9.766,0.000
1586465046.308,-76.172,-276.367,-819.824,-184.570,0.000
1586465046.312,135.254,387.695,-717.285,-112.793,0.000
1586465046.316,66.406,341.309,-772.461,121.582,0.000
1586465046.320,-174.805,-517.090,-916.504,52.734,0.000
1586465046.324,-153.809,-637.207,-890.137,-185.059,0.000
1586465046.328,84.473,160.156,-746.582,-190.918,0.000
1586465046.332,131.348,393.066,-763.672,74.707,0.000
1586465046.336,-113.281,-284.180,-887.695,140.625,0.000
1586465046.339,-219.727,-493.164,-883.301,-93.750,0.000
1586465046.343,0.977,117.188,-754.883,-209.473,0.000
1586465046.347,141.113,385.254,-764.648,-0.977,0.000
1586465046.351,-48.828,-406.738,-888.672,152.832,0.000
1586465046.355,-226.074,-621.094,-882.324,-29.785,0.000
1586465046.359,-82.520,-68.848,-809.570,-218.262,0.000
1586465046.363,124.023,246.582,-757.812,-74.707,0.000
1586465046.367,15.137,-94.238,-867.188,134.766,0.000
1586465046.371,-220.703,-389.160,-891.113,13.672,0.000
1586465046.375,-146.973,-155.762,-814.941,-195.801,0.000
1586465046.378,122.070,-183.105,-828.125,-129.883,0.000
1586465046.382,90.820,-451.172,-921.875,94.727,0.000
1586465046.386,-189.453,-406.250,-901.367,58.594,0.000
1586465046.390,-206.055,-249.023,-884.766,-159.180,0.000
1586465046.394,58.594,-360.840,-855.469,-178.711,0.000
1586465046.398,143.066,-272.949,-808.594,55.664,0.000
1586465046.402,-112.793,126.465,-784.180,100.586,0.000
1586465046.406,-227.051,30.762,-834.961,-81.543,0.000
1586465046.410,-12.207,-432.617,-899.414,-160.645,0.000
1586465046.414,145.020,-441.406,-852.539,2.441,0.000
1586465046.418,-30.273,38.086,-785.156,107.910,0.000
1586465046.421,-228.516,-37.598,-867.676,-30.273,0.000
1586465046.425,-74.707,-572.754,-859.863,-163.086,0.000
1586465046.429,142.578,-134.766,-699.707,-70.312,0.000
1586465046.433,14.648,544.434,-699.219,120.117,0.000
1586465046.437,-212.402,-47.852,-858.887,43.457,0.000
1586465046.441,-147.461,-289.551,-870.605,-142.578,0.000
1586465046.445,90.332,256.836,-724.609,-121.582,0.000
1586465046.449,121.094,681.152,-659.180,125.488,0.000
1586465046.453,-113.770,127.441,-802.246,129.395,0.000
1586465046.457,-214.355,-514.160,-933.105,-164.062,0.000
1586465046.461,-17.090,-221.191,-834.961,-258.789,0.000
1586465046.464,82.031,170.410,-759.766,-31.250,0.000
1586465046.468,-119.629,-276.855,-849.121,73.730,0.000
1586465046.472,-258.789,-688.477,-905.273,-120.605,0.000
1586465046.476,-61.035,-248.047,-850.586,-253.418,0.000
1586465046.480,99.609,338.867,-749.512,-79.102,0.000
1586465046.484,-60.059,-146.973,-847.168,104.980,0.000
1586465046.488,-241.699,-868.164,-958.008,-13.184,0.000
1586465046.492,-131.836,-169.434,-806.152,-222.656,0.000
1586465046.496,109.375,371.582,-740.723,-103.027,0.000
1586465046.500,29.297,255.371,-799.805,97.656,0.000
1586465046.503,-222.168,-111.816,-858.887,9.277,0.000
1586465046.507,-169.922,-402.832,-895.020,-173.340,0.000
1586465046.511,68.848,-204.590,-833.008,-161.621,0.000
1586465046.515,83.984,-36.621,-792.480,62.012,0.000
1586465046.519,-159.668,-157.715,-839.844,82.031,0.000
1586465046.523,-229.980,-112.305,-845.215,-147.461,0.000
1586465046.527,-7.324,135.254,-789.551,-208.496,0.000
1586465046.531,116.699,-281.250,-805.176,41.504,0.000
1586465046.535,-102.539,-383.301,-807.129,127.441,0.000
1586465046.539,-264.648,-93.750,-827.637,-106.445,0.000
1586465046.543,-64.453,-208.008,-875.488,-215.820,0.000
1586465046.546,147.949,161.133,-789.551,-44.434,0.000
1586465046.550,7.324,367.188,-760.742,109.375,0.000
1586465046.554,-213.867,-203.125,-892.090,-11.230,0.000
1586465046.558,-105.957,-687.500,-944.336,-183.105,0.000
1586465046.562,110.352,-400.391,-812.500,-91.309,0.000
1586465046.566,37.598,242.188,-715.332,77.637,0.000
1586465046.570,-210.449,-245.605,-902.832,27.344,0.000
1586465046.574,-198.242,-794.922,-916.016,-149.414,0.000
1586465046.578,42.969,-178.711,-779.785,-182.617,0.000
1586465046.582,93.262,619.629,-665.527,51.758,0.000
1586465046.586,-125.000,268.555,-809.082,133.789,0.000
1586465046.589,-216.797,-384.766,-902.344,-73.242,0.000
1586465046.593,12.695,-26.855,-751.953,-181.152,0.000
1586465046.597,153.809,546.387,-712.402,22.461,0.000
1586465046.601,-56.152,8.789,-848.145,153.320,0.000
1586465046.605,-220.703,-574.219,-906.250,-27.344,0.000
1586465046.609,-66.406,-210.938,-816.895,-216.797,0.000
1586465046.613,134.766,404.297,-690.430,-66.406,0.000
1586465046.617,15.625,361.816,-751.953,134.766,0.000
1586465046.621,-196.289,-589.355,-899.414,28.320,0.000
1586465046.625,-120.117,-516.113,-822.266,-177.734,0.000
1586465046.628,100.098,286.133,-746.582,-142.578,0.000
1586465046.632,64.453,51.758,-861.328,100.098,0.000
1586465046.636,-182.617,-291.504,-909.180,57.617,0.000
1586465046.640,-200.195,-172.363,-833.496,-176.270,0.000
1586465046.644,57.129,221.680,-750.488,-186.523,0.000
1586465046.648,146.973,49.316,-832.520,68.848,0.000
1586465046.652,-84.961,-614.258,-948.242,141.113,0.000
1586465046.656,-212.402,-411.133,-849.609,-80.078,0.000
1586465046.660,5.371,159.180,-753.418,-183.105,0.000
1586465046.664,174.316,-154.297,-842.285,47.363,0.000
1586465046.668,-31.738,-478.516,-884.766,189.941,0.000
1586465046.671,-233.398,-235.352,-847.656,-14.160,0.000
1586465046.675,-73.242,-223.145,-872.559,-203.125,0.000
1586465046.679,135.742,82.520,-771.973,-79.102,0.000
1586465046.683,16.113,270.508,-734.375,105.957,0.000
1586465046.687,-226.562,-163.574,-884.766,-7.812,0.000
1586465046.691,-164.551,-498.047,-907.715,-188.477,0.000
1586465046.695,78.125,-348.633,-813.965,-156.250,0.000
1586465046.699,94.238,45.898,-734.375,70.801,0.000
1586465046.703,-143.066,100.098,-818.359,56.152,0.000
1586465046.707,-197.754,-179.688,-905.273,-173.340,0.000
1586465046.711,37.109,-530.762,-840.820,-195.801,0.000
1586465046.714,137.207,-43.457,-688.965,30.273,0.000
1586465046.718,-96.680,356.934,-751.953,104.492,0.000
1586465046.722,-216.309,-319.336,-924.805,-95.215,0.000
1586465046.726,-17.578,-314.941,-876.465,-213.379,0.000
1586465046.730,129.395,277.832,-742.676,-40.039,0.000
1586465046.734,-29.785,352.539,-782.715,128.418,0.000
1586465046.738,-231.445,-228.027,-875.488,-10.254,0.000
1586465046.742,-91.797,-625.000,-892.578,-194.824,0.000
1586465046.746,124.512,-198.242,-814.453,-84.473,0.000
1586465046.750,21.484,143.066,-770.996,133.789,0.000
1586465046.753,-210.449,-426.758,-887.695,75.195,0.000
1586465046.757,-155.273,-898.438,-943.848,-145.508,0.000
1586465046.761,68.848,-4.883,-739.258,-152.832,0.000
1586465046.765,85.938,629.395,-697.266,94.727,0.000
1586465046.769,-143.066,-124.512,-831.055,103.027,0.000
1586465046.773,-218.750,-476.562,-841.797,-125.977,0.000
1586465046.777,14.648,71.289,-811.523,-206.055,0.000
1586465046.781,108.887,174.316,-828.613,4.395,0.000
1586465046.785,-101.562,-432.129,-867.676,122.559,0.000
1586465046.789,-218.750,-860.840,-913.574,-45.410,0.000
1586465046.793,-46.875,-253.906,-805.664,-206.543,0.000
1586465046.796,120.117,494.629,-687.012,-72.754,0.000
1586465046.800,-9.277,-111.816,-805.176,125.488,0.000
1586465046.804,-216.309,-656.738,-890.137,24.414,0.000
1586465046.808,-101.074,-48.828,-792.969,-176.758,0.000
1586465046.812,123.535,268.066,-755.371,-119.629,0.000
1586465046.816,27.832,188.965,-823.730,104.492,0.000
1586465046.820,-207.031,-36.133,-853.516,47.852,0.000
1586465046.824,-149.414,-91.309,-845.703,-164.062,0.000
1586465046.828,89.844,77.637,-798.828,-154.297,0.000
1586465046.832,95.703,164.062,-831.543,71.289,0.000
1586465046.836,-147.949,-213.867,-885.254,102.539,0.000
1586465046.839,-227.539,-507.324,-878.906,-107.422,0.000
1586465046.843,2.930,-505.371,-897.949,-173.340,0.000
1586465046.847,121.094,-268.555,-810.547,24.902,0.000
1586465046.851,-103.516,79.102,-752.930,125.000,0.000
1586465046.855,-241.211,-415.527,-908.691,-34.668,0.000
1586465046.859,-67.383,-480.957,-845.215,-178.711,0.000
1586465046.863,118.652,21.484,-748.535,-67.383,0.000
1586465046.867,-11.230,158.691,-782.715,112.793,0.000
1586465046.871,-216.309,-279.297,-891.602,12.207,0.000
1586465046.875,-110.352,-432.617,-864.258,-194.336,0.000
1586465046.878,111.816,194.824,-725.098,-143.555,0.000
1586465046.882,83.984,296.875,-811.035,86.426,0.000
1586465046.886,-143.555,-230.957,-882.812,65.918,0.000
1586465046.890,-137.207,-747.070,-876.953,-151.367,0.000
1586465046.894,98.145,-195.312,-742.188,-181.641,0.000
1586465046.898,149.902,649.902,-691.895,53.711,0.000
1586465046.902,-98.633,122.070,-860.840,138.672,0.000
1586465046.906,-212.891,-529.785,-913.574,-82.031,0.000
1586465046.910,-14.160,-40.039,-763.672,-216.797,0.000
1586465046.914,132.324,631.836,-664.062,-7.324,0.000
1586465046.918,-16.113,165.527,-830.566,168.457,0.000
1586465046.921,-203.125,-566.895,-932.617,-7.324,0.000
1586465046.925,-83.984,-242.676,-831.543,-194.336,0.000
1586465046.929,128.418,237.305,-792.969,-69.336,0.000
1586465046.933,37.598,-132.812,-882.324,148.438,0.000
1586465046.937,-203.125,-890.137,-954.102,62.012,0.000
1586465046.941,-141.113,-530.762,-847.656,-180.664,0.000
1586465046.945,98.633,88.379,-797.363,-149.414,0.000
1586465046.949,65.430,61.035,-796.875,111.328,0.000
1586465046.953,-175.781,-36.621,-816.895,94.238,0.000
1586465046.957,-198.242,-88.867,-851.562,-161.621,0.000
1586465046.961,36.621,199.219,-784.180,-196.777,0.000
1586465046.964,138.184,260.254,-782.227,20.508,0.000
1586465046.968,-84.961,-38.086,-821.777,102.539,0.000
1586465046.972,-235.840,-210.449,-866.699,-92.773,0.000
1586465046.976,-24.414,-183.105,-862.793,-212.891,0.000
1586465046.980,159.668,-419.434,-840.820,-12.207,0.000
1586465046.984,-11.719,-414.062,-839.355,116.211,0.000
1586465046.988,-203.613,-80.566,-844.727,-42.969,0.000
1586465046.992,-72.266,-242.188,-865.723,-205.566,0.000
1586465046.996,143.555,51.270,-777.344,-97.656,0.000
1586465047.000,67.383,314.453,-779.785,117.676,0.000
1586465047.003,-166.504,28.809,-830.078,21.973,0.000
1586465047.007,-127.441,-294.434,-908.691,-152.832,0.000
1586465047.011,111.816,-32.227,-814.941,-124.512,0.000
1586465047.015,118.652,441.406,-690.918,58.105,0.000
1586465047.019,-124.512,138.672,-849.121,84.473,0.000
1586465047.023,-179.199,-617.188,-963.867,-103.516,0.000
1586465047.027,41.504,-556.641,-832.031,-191.406,0.000
1586465047.031,137.695,454.102,-638.184,9.277,0.000
1586465047.035,-77.148,381.836,-800.293,123.535,0.000
1586465047.039,-208.984,-489.258,-888.184,-58.105,0.000
1586465047.043,1.953,-663.574,-868.164,-203.613,0.000
1586465047.046,165.527,149.414,-734.375,-57.129,0.000
1586465047.050,6.836,427.734,-749.512,103.516,0.000
1586465047.054,-181.152,-318.359,-910.156,5.371,0.000
1586465047.058,-103.027,-364.258,-847.168,-177.246,0.000
1586465047.062,129.395,404.297,-712.891,-116.211,0.000
1586465047.066,86.426,458.984,-774.902,129.395,0.000
1586465047.070,-166.992,-374.023,-909.180,54.688,0.000
1586465047.074,-144.043,-614.746,-901.855,-158.691,0.000
1586465047.078,121.094,163.574,-761.230,-131.348,0.000
1586465047.082,150.879,480.957,-735.352,87.891,0.000
1586465047.086,-119.141,-403.320,-875.977,115.723,0.000
1586465047.089,-228.027,-587.891,-868.652,-120.605,0.000
1586465047.093,-21.484,208.496,-774.414,-239.258,0.000
1586465047.097,112.793,265.137,-812.012,-2.441,0.000
1586465047.101,-86.426,-220.215,-896.484,116.699,0.000
1586465047.105,-254.395,-220.703,-855.469,-82.520,0.000
1586465047.109,-81.055,220.215,-767.090,-199.707,0.000
1586465047.113,124.512,166.016,-824.707,-44.922,0.000
1586465047.117,14.648,-431.641,-932.617,163.086,0.000
1586465047.121,-240.723,-528.809,-880.859,22.949,0.000
1586465047.125,-140.137,-166.992,-818.359,-239.746,0.000
1586465047.128,134.277,-124.512,-829.102,-159.668,0.000
1586465047.132,65.918,-821.777,-935.547,102.051,0.000
1586465047.136,-198.242,-688.965,-890.137,38.574,0.000
1586465047.140,-195.312,-55.664,-832.031,-177.246,0.000
1586465047.144,52.246,0.488,-767.090,-179.688,0.000
1586465047.148,105.957,194.824,-711.426,37.109,0.000
1586465047.152,-114.746,237.793,-805.664,95.215,0.000
1586465047.156,-208.984,-195.801,-884.766,-109.375,0.000
1586465047.160,4.395,-299.316,-860.352,-182.129,0.000
1586465047.164,141.602,-53.711,-799.805,5.859,0.000
1586465047.168,-41.504,56.152,-808.594,108.887,0.000
1586465047.171,-208.984,-110.352,-854.492,-48.828,0.000
1586465047.175,-48.340,-763.184,-928.223,-204.102,0.000
1586465047.179,160.156,-579.590,-816.406,-80.566,0.000
1586465047.183,16.602,475.586,-664.551,99.121,0.000
1586465047.187,-220.703,4.883,-856.445,0.977,0.000
1586465047.191,-141.602,-640.137,-912.598,-178.711,0.000
1586465047.195,88.379,86.914,-741.211,-135.742,0.000
1586465047.199,78.613,595.215,-713.379,75.195,0.000
1586465047.203,-155.762,-88.867,-874.512,78.613,0.000
1586465047.207,-173.828,-418.457,-907.715,-144.531,0.000
1586465047.211,64.453,-126.953,-837.891,-165.527,0.000
1586465047.214,137.207,120.117,-799.316,58.594,0.000
1586465047.218,-95.215,-340.332,-913.086,106.934,0.000
1586465047.222,-216.797,-800.781,-947.266,-90.820,0.000
1586465047.226,-15.137,-188.965,-822.266,-210.449,0.000
1586465047.230,152.832,319.824,-773.926,-25.879,0.000
1586465047.234,-13.672,202.148,-771.973,135.742,0.000
1586465047.238,-214.844,-93.750,-830.566,-8.789,0.000
1586465047.242,-95.215,79.102,-796.387,-180.664,0.000
1586465047.246,136.230,470.215,-710.449,-69.824,0.000
1586465047.250,70.312,384.766,-768.066,137.207,0.000
1586465047.253,-184.082,-21.484,-846.680,52.734,0.000
1586465047.257,-128.418,-182.129,-863.770,-130.371,0.000
1586465047.261,105.957,80.566,-793.457,-92.773,0.000
1586465047.265,104.004,-47.363,-747.559,104.004,0.000
1586465047.269,-131.836,-272.949,-804.688,95.703,0.000
1586465047.273,-180.664,-297.363,-879.883,-135.742,0.000
1586465047.277,62.500,-195.801,-869.141,-180.176,0.000
1586465047.281,174.316,-214.844,-804.688,55.176,0.000
1586465047.285,-39.062,-217.285,-798.340,144.043,0.000
1586465047.289,-197.754,39.062,-833.496,-66.406,0.000
1586465047.293,-33.691,-88.379,-878.906,-219.238,0.000
1586465047.296,166.992,262.695,-768.066,-30.273,0.000
1586465047.300,8.301,513.672,-717.773,133.789,0.000
1586465047.304,-215.820,-146.973,-891.602,-8.301,0.000
1586465047.308,-87.891,-701.660,-946.289,-180.176,0.000
1586465047.312,139.648,-479.980,-828.613,-102.051,0.000
1586465047.316,43.945,346.191,-698.242,104.004,0.000
1586465047.320,-200.195,-25.391,-891.113,55.176,0.000
1586465047.324,-160.156,-504.395,-885.742,-177.734,0.000
1586465047.328,75.195,120.605,-742.676,-188.477,0.000
1586465047.332,101.074,365.723,-752.441,59.570,0.000
1586465047.336,-145.508,37.598,-865.723,72.266,0.000
1586465047.339,-222.656,-304.199,-895.020,-128.418,0.000
1586465047.343,13.184,1.465,-751.953,-177.246,0.000
1586465047.347,126.953,453.613,-726.562,25.391,0.000
1586465047.351,-83.496,-11.719,-879.883,132.324,0.000
1586465047.355,-200.684,-779.785,-936.035,-26.367,0.000
1586465047.359,-18.066,-605.469,-868.164,-173.828,0.000
1586465047.363,122.559,435.547,-699.219,-74.707,0.000
1586465047.367,-0.977,340.820,-777.832,112.305,0.000
1586465047.371,-199.707,-311.035,-901.855,4.883,0.000
1586465047.375,-103.516,-168.457,-850.586,-201.172,0.000
1586465047.378,115.234,365.723,-727.539,-129.395,0.000
1586465047.382,68.359,374.512,-763.672,106.445,0.000
1586465047.386,-175.293,-220.703,-927.246,78.613,0.000
1586465047.390,-172.363,-420.410,-866.211,-139.648,0.000
1586465047.394,80.078,37.109,-772.461,-174.316,0.000
1586465047.398,147.461,54.199,-847.168,56.152,0.000
1586465047.402,-102.051,-543.945,-923.828,108.887,0.000
1586465047.406,-225.098,-292.969,-836.426,-107.910,0.000
1586465047.410,4.883,178.711,-786.133,-178.711,0.000
1586465047.414,143.555,156.738,-777.832,24.902,0.000
1586465047.418,-48.340,6.348,-798.340,169.434,0.000
1586465047.421,-204.590,-0.977,-845.703,3.906,0.000
1586465047.425,-53.711,-102.051,-867.676,-177.246,0.000
1586465047.429,141.602,57.129,-806.641,-32.715,0.000
1586465047.433,46.875,213.379,-771.484,169.922,0.000
1586465047.437,-190.430,27.344,-823.242,29.297,0.000
1586465047.441,-130.859,-77.637,-831.055,-183.594,0.000
1586465047.445,127.441,-226.074,-832.031,-122.559,0.000
1586465047.449,100.098,-289.551,-832.031,72.266,0.000
1586465047.453,-149.902,-251.953,-854.004,47.852,0.000
1586465047.457,-162.598,-232.910,-883.789,-141.602,0.000
1586465047.461,77.148,-495.605,-828.125,-147.461,0.000
1586465047.464,156.738,-229.492,-755.859,73.242,0.000
1586465047.468,-62.012,205.078,-826.172,113.770,0.000
1586465047.472,-200.195,-288.086,-914.551,-76.172,0.000
1586465047.476,-9.766,-263.184,-861.816,-185.059,0.000
1586465047.480,148.926,469.238,-691.895,-14.648,0.000
1586465047.484,-24.414,490.723,-743.652,145.996,0.000
1586465047.488,-190.430,-199.707,-883.301,-2.930,0.000
1586465047.492,-65.918,-515.137,-897.949,-173.828,0.000
1586465047.496,110.352,93.750,-766.602,-100.098,0.000
1586465047.500,45.410,479.492,-743.164,123.535,0.000
1586465047.503,-182.617,-356.934,-910.156,62.988,0.000
1586465047.507,-162.598,-958.496,-952.637,-162.109,0.000
1586465047.511,78.125,-167.480,-773.438,-139.648,0.000
1586465047.515,83.008,507.324,-705.566,57.617,0.000
1586465047.519,-177.734,17.090,-815.430,61.035,0.000
1586465047.523,-205.078,-387.207,-858.887,-150.879,0.000
1586465047.527,32.715,155.273,-745.117,-208.984,0.000
1586465047.531,119.629,506.348,-725.098,36.133,0.000
1586465047.535,-78.125,-28.809,-872.070,161.621,0.000
1586465047.539,-208.008,-613.281,-937.012,-51.758,0.000
1586465047.543,-31.738,-355.957,-828.125,-194.824,0.000
1586465047.546,142.090,354.980,-708.496,-29.297,0.000
1586465047.550,9.766,-343.750,-895.996,153.809,0.000
1586465047.554,-197.754,-910.156,-966.797,23.926,0.000
1586465047.558,-104.980,-117.188,-816.406,-205.078,0.000
1586465047.562,125.488,264.648,-776.855,-96.191,0.000
1586465047.566,59.570,123.535,-830.566,141.602,0.000
1586465047.570,-196.289,-57.129,-838.867,39.062,0.000
1586465047.574,-170.898,19.531,-812.012,-194.336,0.000
1586465047.578,87.891,126.953,-816.406,-173.828,0.000
1586465047.582,99.121,227.539,-816.895,66.895,0.000
1586465047.586,-127.441,-78.125,-861.328,90.332,0.000
1586465047.589,-179.199,-493.652,-903.809,-117.188,0.000
1586465047.593,11.230,-460.449,-915.039,-180.664,0.000
1586465047.597,123.047,-312.988,-850.098,27.832,0.000
1586465047.601,-78.125,-148.438,-816.406,128.906,0.000
1586465047.605,-225.586,-298.340,-906.738,-66.895,0.000
1586465047.609,-33.203,-170.898,-821.289,-193.848,0.000
1586465047.613,165.527,181.152,-732.910,-43.945,0.000
1586465047.617,38.086,329.590,-774.414,105.469,0.000
1586465047.621,-186.523,-145.996,-893.555,-14.160,0.000
1586465047.625,-92.285,-487.305,-878.418,-194.824,0.000
1586465047.628,134.277,13.672,-759.766,-123.047,0.000
1586465047.632,56.641,206.543,-812.500,77.148,0.000
1586465047.636,-178.711,-272.949,-887.207,40.039,0.000
1586465047.640,-160.645,-882.324,-947.754,-143.555,0.000
1586465047.644,64.453,-433.105,-837.402,-184.082,0.000
1586465047.648,119.629,672.363,-634.766,31.250,0.000
1586465047.652,-111.328,298.828,-794.434,117.188,0.000
1586465047.656,-224.121,-348.633,-917.480,-109.375,0.000
1586465047.660,-28.809,-46.875,-817.871,-219.238,0.000
1586465047.664,122.559,427.734,-737.305,-5.859,0.000
1586465047.668,-48.340,71.289,-855.957,136.230,0.000
1586465047.671,-237.793,-396.484,-916.016,-26.367,0.000
1586465047.675,-77.637,-39.551,-811.035,-198.242,0.000
1586465047.679,126.953,128.418,-837.402,-64.941,0.000
1586465047.683,20.020,-299.316,-900.879,158.691,0.000
1586465047.687,-174.805,-910.645,-942.383,52.734,0.000
1586465047.691,-144.043,-369.141,-825.684,-188.477,0.000
1586465047.695,100.098,287.598,-766.602,-114.746,0.000
1586465047.699,95.703,14.648,-812.500,95.215,0.000
1586465047.703,-183.105,-207.520,-861.816,21.484,0.000
1586465047.707,-188.965,-99.121,-839.355,-177.246,0.000
1586465047.711,71.777,236.816,-764.648,-195.801,0.000
1586465047.714,133.301,284.668,-805.176,41.504,0.000
1586465047.718,-108.398,40.039,-834.473,108.887,0.000
1586465047.722,-219.727,-137.695,-881.836,-93.750,0.000
1586465047.726,-15.137,-222.168,-873.535,-190.918,0.000
1586465047.730,129.395,-131.836,-807.129,-11.719,0.000
1586465047.734,-44.922,20.996,-808.594,136.719,0.000
1586465047.738,-208.984,-145.996,-883.301,-7.812,0.000
1586465047.742,-59.570,-266.113,-881.836,-173.828,0.000
1586465047.746,132.324,-428.223,-808.105,-57.129,0.000
1586465047.750,23.438,-141.113,-751.465,133.789,0.000
1586465047.753,-199.707,133.789,-823.242,20.996,0.000
1586465047.757,-121.582,-327.148,-918.457,-161.621,0.000
1586465047.761,116.211,-83.984,-826.660,-111.816,0.000
1586465047.765,107.422,464.355,-712.402,96.680,0.000
1586465047.769,-158.691,172.363,-838.379,76.172,0.000
1586465047.773,-200.195,-564.941,-934.570,-133.789,0.000
1586465047.777,58.105,-439.453,-822.754,-189.941,0.000
1586465047.781,140.137,295.410,-716.797,7.812,0.000
1586465047.785,-90.332,225.098,-808.105,115.723,0.000
1586465047.789,-194.336,-629.883,-944.824,-59.570,0.000
1586465047.793,20.508,-713.867,-908.203,-205.078,0.000
1586465047.796,159.180,288.086,-744.141,-44.434,0.000
1586465047.800,-5.371,189.941,-835.938,142.090,0.000
1586465047.804,-188.477,-538.086,-893.555,3.418,0.000
1586465047.808,-73.730,-283.691,-787.598,-200.684,0.000
1586465047.812,122.559,357.910,-737.793,-125.000,0.000
1586465047.816,59.082,313.477,-814.453,90.332,0.000
1586465047.820,-170.898,-492.188,-918.457,33.203,0.000
1586465047.824,-148.438,-656.250,-864.258,-188.477,0.000
1586465047.828,91.797,214.355,-720.215,-179.688,0.000
1586465047.832,123.535,481.934,-746.094,83.984,0.000
1586465047.836,-103.516,-381.348,-865.723,134.766,0.000
1586465047.839,-169.434,-559.082,-866.211,-90.332,0.000
1586465047.843,41.016,124.512,-788.574,-187.012,0.000
1586465047.847,157.715,250.488,-783.203,45.898,0.000
1586465047.851,-27.344,-55.664,-865.234,159.180,0.000
1586465047.855,-201.172,-383.789,-918.457,-36.621,0.000
1586465047.859,-43.457,-141.602,-802.246,-156.738,0.000
1586465047.863,158.691,277.832,-733.887,2.441,0.000
1586465047.867,23.438,-130.371,-875.977,162.109,0.000
1586465047.871,-187.500,-450.195,-889.160,6.348,0.000
1586465047.875,-89.844,-61.035,-816.895,-188.477,0.000
1586465047.878,124.023,62.012,-808.105,-128.418,0.000
1586465047.882,66.895,-564.941,-930.664,116.699,0.000
1586465047.886,-202.148,-405.762,-876.465,56.152,0.000
1586465047.890,-170.898,-30.273,-844.727,-207.520,0.000
1586465047.894,77.148,-32.227,-816.406,-209.473,0.000
1586465047.898,69.336,326.660,-702.148,34.180,0.000
1586465047.902,-162.109,250.977,-787.598,83.008,0.000
1586465047.906,-225.586,-232.422,-899.414,-132.812,0.000
1586465047.910,-12.695,-197.266,-860.352,-175.293,0.000
1586465047.914,122.070,49.316,-811.523,38.574,0.000
1586465047.918,-80.078,-178.223,-871.582,108.887,0.000
1586465047.921,-246.094,-554.688,-904.785,-76.660,0.000
1586465047.925,-53.711,-826.660,-875.000,-196.289,0.000
1586465047.929,104.492,-220.703,-752.930,-91.797,0.000
1586465047.933,-68.848,439.453,-749.023,46.875,0.000
1586465047.937,-307.617,-231.934,-915.527,-62.988,0.000
1586465047.941,-249.023,-526.367,-912.598,-296.875,0.000
1586465047.945,-41.504,118.164,-765.625,-256.348,0.000
1586465047.949,-98.633,506.836,-745.605,-85.449,0.000
1586465047.953,-372.070,-125.000,-892.578,-155.273,0.000
1586465047.957,-420.410,-585.449,-926.270,-382.812,0.000
1586465047.961,-187.012,-172.852,-838.379,-429.688,0.000
1586465047.964,-129.395,271.973,-757.812,-218.750,0.000
1586465047.968,-386.230,-164.062,-850.098,-171.875,0.000
1586465047.972,-500.000,-958.496,-968.750,-369.141,0.000
1586465047.976,-295.898,-503.418,-858.887,-478.027,0.000
1586465047.980,-137.207,90.332,-806.641,-291.992,0.000
1586465047.984,-295.410,-57.617,-828.125,-138.672,0.000
1586465047.988,-460.938,-263.672,-877.930,-291.016,0.000
1586465047.992,-299.805,6.836,-828.125,-429.199,0.000
1586465047.996,-71.777,382.324,-747.559,-273.926,0.000
1586465048.000,-164.551,337.891,-784.180,-51.270,0.000
1586465048.003,-363.281,-4.395,-836.426,-108.398,0.000
1586465048.007,-272.949,-441.406,-923.828,-291.016,0.000
1586465048.011,-26.855,-142.578,-832.031,-244.141,0.000
1586465048.015,0.488,-302.734,-810.547,32.715,0.000
1586465048.019,-235.352,-676.758,-888.184,51.270,0.000
1586465048.023,-251.953,-183.105,-854.004,-162.598,0.000
1586465048.027,13.184,-5.371,-818.848,-198.242,0.000
1586465048.031,127.441,-41.992,-836.426,15.137,0.000
1586465048.035,-97.656,-193.848,-875.488,103.516,0.000
1586465048.039,-243.652,-237.793,-862.305,-87.891,0.000
1586465048.043,-16.113,-223.633,-875.488,-188.477,0.000
1586465048.046,181.641,12.695,-833.496,24.902,0.000
1586465048.050,27.832,93.750,-815.430,172.363,0.000
1586465048.054,-174.316,-438.965,-913.086,10.742,0.000
1586465048.058,-62.988,-585.449,-881.348,-156.738,0.000
1586465048.062,151.367,69.824,-737.793,-47.363,0.000
1586465048.066,120.605,469.238,-732.910,190.918,0.000
1586465048.070,-124.512,-63.477,-867.676,137.207,0.000
1586465048.074,-100.098,-729.980,-933.105,-77.148,0.000
1586465048.078,152.832,-375.977,-826.172,-71.289,0.000
1586465048.082,161.133,506.348,-671.387,152.344,0.000
1586465048.086,-63.965,152.832,-845.703,187.012,0.000
1586465048.089,-114.746,-682.617,-935.547,-18.066,0.000
1586465048.093,126.953,-300.293,-772.461,-94.727,0.000
1586465048.097,243.164,505.859,-717.773,125.488,0.000
1586465048.101,26.367,60.547,-859.375,249.512,0.000
1586465048.105,-121.582,-778.809,-921.387,60.547,0.000
1586465048.109,70.801,-546.387,-837.891,-103.027,0.000
1586465048.113,244.629,449.707,-683.594,57.129,0.000
1586465048.117,112.305,415.039,-769.043,236.816,0.000
1586465048.121,-84.473,-686.523,-948.242,122.559,0.000
1586465048.125,-8.301,-640.137,-900.879,-88.867,0.000
1586465048.128,212.891,483.398,-695.801,-19.531,0.000
1586465048.132,165.039,468.750,-757.324,216.797,0.000
1586465048.136,-86.426,-127.441,-913.086,144.043,0.000
1586465048.140,-73.730,-79.102,-839.844,-70.801,0.000
1586465048.144,181.641,260.742,-786.621,-60.059,0.000
1586465048.148,221.680,61.523,-874.512,179.688,0.000
1586465048.152,-18.555,-673.828,-937.500,191.406,0.000
1586465048.156,-106.934,-491.699,-858.887,-27.344,0.000
1586465048.160,90.332,291.504,-763.184,-117.188,0.000
1586465048.164,228.516,234.375,-773.438,86.426,0.000
1586465048.168,27.832,-152.832,-859.863,222.656,0.000
1586465048.171,-162.109,-83.008,-859.375,33.203,0.000
1586465048.175,14.160,35.645,-850.586,-114.258,0.000
1586465048.179,208.008,144.531,-761.230,33.203,0.000
1586465048.183,84.961,105.957,-765.137,215.332,0.000
1586465048.187,-138.184,-132.324,-869.629,83.984,0.000
1586465048.191,-68.848,-175.293,-854.004,-142.090,0.000
1586465048.195,171.875,-187.500,-844.727,-83.984,0.000
1586465048.199,134.277,-50.781,-793.457,132.324,0.000
1586465048.203,-119.141,-1.465,-843.262,98.145,0.000
1586465048.207,-125.488,-279.297,-880.859,-113.281,0.000
1586465048.211,131.348,-733.887,-883.301,-134.277,0.000
1586465048.214,184.082,-408.691,-842.773,78.125,0.000
1586465048.218,-80.566,274.414,-779.785,127.441,0.000
1586465048.222,-164.062,-266.602,-894.043,-44.922,0.000
1586465048.226,46.387,-283.203,-872.070,-162.598,0.000
1586465048.230,159.668,443.359,-716.797,22.461,0.000
1586465048.234,12.207,392.090,-777.832,177.246,0.000
1586465048.238,-140.137,-241.699,-900.391,3.418,0.000
1586465048.242,-23.438,-600.586,-912.598,-151.367,0.000
1586465048.246,161.133,-116.699,-795.410,-30.762,0.000
1586465048.250,61.523,539.062,-700.195,156.738,0.000
1586465048.253,-143.555,-160.645,-870.605,86.914,0.000
1586465048.257,-87.402,-924.805,-953.125,-104.980,0.000
1586465048.261,121.582,-168.945,-799.316,-99.609,0.000
1586465048.265,120.117,303.711,-795.410,118.164,0.000
1586465048.269,-115.234,-511.230,-939.453,117.676,0.000
1586465048.273,-157.715,-785.156,-931.641,-103.027,0.000
1586465048.277,68.848,177.246,-743.164,-183.105,0.000
1586465048.281,168.945,514.648,-743.164,63.965,0.000
1586465048.285,-62.012,-42.969,-870.117,157.715,0.000
1586465048.289,-198.730,-603.027,-924.805,-87.402,0.000
1586465048.293,-11.230,-324.707,-840.820,-196.289,0.000
1586465048.296,157.227,434.082,-712.891,-17.578,0.000
1586465048.300,30.273,-229.492,-831.055,156.250,0.000
1586465048.304,-187.988,-747.070,-916.016,10.254,0.000
1586465048.308,-80.078,15.137,-812.988,-172.852,0.000
1586465048.312,147.949,359.863,-763.672,-65.430,0.000
1586465048.316,49.316,216.309,-829.590,125.977,0.000
1586465048.320,-196.289,-26.855,-854.980,44.922,0.000
1586465048.324,-156.738,-319.336,-875.977,-166.992,0.000
1586465048.328,89.844,-201.660,-866.211,-151.367,0.000
1586465048.332,102.051,180.664,-846.191,79.102,0.000
1586465048.336,-137.207,-113.281,-876.465,112.305,0.000
1586465048.339,-187.988,-579.590,-910.156,-108.887,0.000
1586465048.343,63.965,-505.859,-917.480,-169.434,0.000
1586465048.347,169.922,-327.637,-860.840,47.852,0.000
1586465048.351,-74.219,-188.965,-817.383,131.836,0.000
1586465048.355,-220.703,-173.340,-893.066,-41.992,0.000
1586465048.359,-35.156,-388.672,-863.770,-208.496,0.000
1586465048.363,155.273,-82.031,-766.113,-67.871,0.000
1586465048.367,1.465,427.734,-761.719,125.000,0.000
1586465048.371,-212.402,21.973,-887.695,-11.719,0.000
1586465048.375,-98.145,-194.824,-852.539,-206.543,0.000
1586465048.378,119.629,230.469,-731.934,-124.512,0.000
1586465048.382,52.246,297.363,-798.340,91.309,0.000
1586465048.386,-190.430,-231.445,-879.883,41.016,0.000
1586465048.390,-166.992,-794.434,-900.391,-146.973,0.000
1586465048.394,77.637,-297.852,-780.273,-149.902,0.000
1586465048.398,114.746,539.551,-717.773,52.734,0.000
1586465048.402,-138.672,31.738,-857.422,83.496,0.000
1586465048.406,-217.773,-452.637,-919.434,-129.883,0.000
1586465048.410,7.324,-26.367,-812.500,-206.055,0.000
1586465048.414,127.930,539.551,-706.055,6.348,0.000
1586465048.418,-59.082,52.734,-864.258,134.766,0.000
1586465048.421,-212.891,-598.633,-932.617,-28.809,0.000
1586465048.425,-57.617,-262.207,-845.703,-183.105,0.000
1586465048.429,133.301,48.340,-839.844,-26.367,0.000
1586465048.433,17.090,-288.086,-889.648,152.832,0.000
1586465048.437,-190.430,-663.574,-935.547,34.668,0.000
1586465048.441,-89.844,-467.285,-853.027,-162.598,0.000
1586465048.445,112.793,-36.133,-800.293,-108.398,0.000
1586465048.449,74.707,-281.250,-870.117,119.141,0.000
1586465048.453,-156.738,-742.676,-933.105,80.078,0.000
1586465048.457,-186.035,-236.328,-850.098,-159.668,0.000
1586465048.461,56.152,288.574,-776.855,-184.570,0.000
1586465048.464,133.301,325.195,-819.336,62.012,0.000
1586465048.468,-105.957,72.266,-855.957,116.699,0.000
1586465048.472,-210.938,-0.488,-870.117,-100.098,0.000
1586465048.476,38.574,-12.695,-854.492,-166.016,0.000
1586465048.480,203.613,-342.773,-842.285,55.176,0.000
1586465048.484,-8.789,-397.461,-882.324,149.902,0.000
1586465048.488,-207.031,36.133,-842.773,-41.992,0.000
1586465048.492,-40.527,67.383,-838.867,-188.477,0.000
1586465048.496,175.781,317.383,-749.512,-33.203,0.000
1586465048.500,66.895,269.043,-750.977,152.832,0.000
1586465048.503,-173.828,-18.555,-846.680,30.273,0.000
1586465048.507,-113.770,-135.742,-879.883,-147.461,0.000
1586465048.511,135.742,40.039,-827.148,-101.562,0.000
1586465048.515,130.371,433.105,-723.145,108.398,0.000
1586465048.519,-112.305,91.309,-825.684,120.605,0.000
1586465048.523,-129.395,-602.051,-958.496,-98.145,0.000
1586465048.527,100.098,-575.684,-871.094,-150.879,0.000
1586465048.531,169.922,273.438,-712.402,78.125,0.000
1586465048.535,-35.645,276.367,-799.805,150.391,0.000
1586465048.539,-160.156,-578.613,-907.227,-59.082,0.000
1586465048.543,26.367,-560.059,-856.445,-182.129,0.000
1586465048.546,162.109,377.441,-705.078,10.742,0.000
1586465048.550,-9.766,416.016,-767.578,171.387,0.000
1586465048.554,-191.406,-316.895,-905.762,7.812,0.000
1586465048.558,-61.035,-513.672,-878.418,-159.668,0.000
1586465048.562,150.391,224.609,-731.934,-59.082,0.000
1586465048.566,60.547,451.172,-767.090,139.160,0.000
1586465048.570,-170.898,-357.910,-894.043,66.895,0.000
1586465048.574,-131.836,-518.555,-859.375,-136.230,0.000
1586465048.578,100.098,265.137,-746.094,-117.676,0.000
1586465048.582,123.535,415.527,-763.672,116.699,0.000
1586465048.586,-109.375,-446.777,-876.953,140.625,0.000
1586465048.589,-177.734,-584.961,-871.094,-88.379,0.000
1586465048.593,49.316,169.922,-768.555,-183.105,0.000
1586465048.597,147.461,302.734,-780.762,43.457,0.000
1586465048.601,-68.848,-304.688,-896.484,159.668,0.000
1586465048.605,-217.285,-465.820,-896.973,-57.617,0.000
1586465048.609,-28.809,7.324,-802.246,-205.566,0.000
1586465048.613,147.461,250.000,-777.832,-36.621,0.000
1586465048.617,2.441,-190.430,-881.836,126.465,0.000
1586465048.621,-184.570,-761.230,-911.133,6.836,0.000
1586465048.625,-71.289,-485.352,-848.145,-178.223,0.000
1586465048.628,149.414,-183.594,-855.469,-90.820,0.000
1586465048.632,94.238,-513.672,-913.086,150.391,0.000
1586465048.636,-158.691,-382.812,-871.582,64.453,0.000
1586465048.640,-153.320,-72.266,-847.168,-184.570,0.000
1586465048.644,90.820,-316.406,-877.441,-156.738,0.000
1586465048.648,98.145,-444.336,-863.281,73.730,0.000
1586465048.652,-164.062,8.789,-810.059,77.148,0.000
1586465048.656,-220.703,-54.688,-870.117,-152.832,0.000
1586465048.660,18.555,-14.648,-851.074,-200.684,0.000
1586465048.664,157.715,62.500,-812.988,33.691,0.000
1586465048.668,-67.871,4.395,-829.102,114.746,0.000
1586465048.671,-240.234,-251.953,-896.484,-60.059,0.000
1586465048.675,-37.109,-710.449,-910.156,-194.824,0.000
1586465048.679,146.484,-182.129,-789.551,-62.500,0.000
1586465048.683,10.742,477.539,-756.348,112.305,0.000
1586465048.687,-182.617,-46.875,-883.301,-9.277,0.000
1586465048.691,-93.262,-432.129,-887.207,-207.520,0.000
1586465048.695,112.305,158.203,-733.887,-127.441,0.000
1586465048.699,83.496,697.266,-667.969,83.008,0.000
1586465048.703,-132.812,127.930,-854.492,58.594,0.000
1586465048.707,-149.414,-750.488,-961.426,-137.695,0.000
1586465048.711,77.637,-407.715,-835.938,-182.617,0.000
1586465048.714,125.488,322.266,-751.465,30.273,0.000
1586465048.718,-118.652,-80.566,-868.652,98.145,0.000
1586465048.722,-196.777,-920.410,-949.219,-74.707,0.000
1586465048.726,15.137,-414.551,-822.754,-184.082,0.000
1586465048.730,147.949,337.402,-777.832,-8.301,0.000
1586465048.734,-47.363,-16.602,-820.312,130.371,0.000
1586465048.738,-226.562,-341.797,-862.793,-29.785,0.000
1586465048.742,-68.848,166.016,-799.805,-190.918,0.000
1586465048.746,133.789,571.289,-729.004,-55.176,0.000
1586465048.750,27.832,318.848,-790.527,144.531,0.000
1586465048.753,-184.570,-129.883,-870.117,46.387,0.000
1586465048.757,-111.328,-305.176,-875.488,-143.066,0.000
1586465048.761,124.512,69.336,-803.223,-104.004,0.000
1586465048.765,92.285,-208.984,-843.750,110.840,0.000
1586465048.769,-161.621,-595.703,-891.602,92.773,0.000
1586465048.773,-180.176,8.301,-809.570,-156.250,0.000
1586465048.777,65.430,297.852,-753.418,-190.430,0.000
1586465048.781,158.691,319.336,-749.023,62.012,0.000
1586465048.785,-60.547,268.555,-791.992,125.488,0.000
1586465048.789,-187.988,-58.594,-880.859,-90.332,0.000
1586465048.793,19.043,-344.727,-921.875,-180.176,0.000
1586465048.796,175.781,133.301,-797.363,8.789,0.000
1586465048.800,-15.137,278.809,-794.434,125.000,0.000
1586465048.804,-210.938,-400.391,-912.109,-23.438,0.000
1586465048.808,-63.477,-737.793,-940.430,-164.062,0.000
1586465048.812,148.926,-636.719,-853.027,-53.223,0.000
1586465048.816,31.250,96.680,-723.633,131.348,0.000
1586465048.820,-196.289,-4.883,-876.465,58.594,0.000
1586465048.824,-149.414,-448.730,-875.977,-151.855,0.000
1586465048.828,74.707,168.457,-712.402,-164.551,0.000
1586465048.832,86.914,742.676,-660.156,61.523,0.000
1586465048.836,-158.203,285.645,-817.871,79.590,0.000
1586465048.839,-203.125,-377.930,-907.715,-121.094,0.000
1586465048.843,17.578,42.480,-734.375,-187.500,0.000
1586465048.847,97.656,541.504,-713.379,26.367,0.000
1586465048.851,-102.051,-22.949,-876.465,124.512,0.000
1586465048.855,-221.680,-780.273,-919.922,-79.590,0.000
1586465048.859,-39.062,-414.062,-818.848,-200.684,0.000
1586465048.863,127.930,467.285,-709.961,-41.016,0.000
1586465048.867,-34.668,221.680,-812.988,107.910,0.000
1586465048.871,-244.629,-558.105,-909.668,-13.184,0.000
1586465048.875,-111.816,-402.832,-841.309,-191.406,0.000
1586465048.878,142.578,372.070,-690.430,-102.539,0.000
1586465048.882,83.496,288.086,-783.691,125.488,0.000
1586465048.886,-178.711,-643.555,-969.238,60.547,0.000
1586465048.890,-177.246,-505.859,-863.770,-167.969,0.000
1586465048.894,63.965,311.523,-733.887,-175.781,0.000
1586465048.898,97.168,99.121,-839.844,77.148,0.000
1586465048.902,-139.648,-575.195,-926.270,107.422,0.000
1586465048.906,-188.477,-433.105,-867.188,-95.703,0.000
1586465048.910,52.734,-39.062,-828.125,-148.926,0.000
1586465048.914,143.066,-243.164,-876.953,25.879,0.000
1586465048.918,-106.445,-534.668,-917.969,116.211,0.000
1586465048.921,-269.531,-226.074,-855.469,-95.215,0.000
1586465048.925,-58.594,-8.301,-840.332,-231.445,0.000
1586465048.929,152.832,50.781,-813.965,-43.945,0.000
1586465048.933,-22.461,21.484,-812.988,108.887,0.000
1586465048.937,-266.602,-45.898,-854.980,-46.387,0.000
1586465048.941,-143.555,-107.422,-854.492,-197.754,0.000
1586465048.945,101.074,-118.652,-835.449,-112.793,0.000
1586465048.949,45.410,60.059,-781.738,83.496,0.000
1586465048.953,-201.660,71.289,-810.547,53.223,0.000
1586465048.957,-188.477,-219.727,-889.160,-175.293,0.000
1586465048.961,58.105,-289.062,-833.008,-175.781,0.000
1586465048.964,100.586,-30.762,-774.902,26.367,0.000
1586465048.968,-137.207,9.277,-832.520,53.711,0.000
1586465048.972,-195.801,-289.551,-910.156,-122.070,0.000
1586465048.976,7.324,-665.039,-857.422,-203.125,0.000
1586465048.980,110.352,-62.012,-722.656,-27.344,0.000
1586465048.984,-78.125,448.242,-774.902,99.121,0.000
1586465048.988,-251.465,-123.535,-892.090,-53.223,0.000
1586465048.992,-82.520,-400.391,-889.160,-208.984,0.000
1586465048.996,112.305,93.262,-765.625,-65.918,0.000
1586465049.000,-6.836,417.969,-759.766,95.703,0.000
1586465049.003,-210.938,-291.016,-906.250,-1.953,0.000
1586465049.007,-142.090,-925.781,-937.500,-176.758,0.000
1586465049.011,84.473,-63.965,-745.605,-152.344,0.000
1586465049.015,76.660,539.062,-715.332,72.754,0.000
1586465049.019,-172.852,-107.910,-840.820,75.684,0.000
1586465049.023,-185.059,-632.324,-913.574,-127.930,0.000
1586465049.027,54.688,-79.590,-728.027,-159.180,0.000
1586465049.031,126.953,501.465,-660.645,57.129,0.000
1586465049.035,-85.938,-28.320,-878.906,95.215,0.000
1586465049.039,-215.820,-616.699,-928.223,-115.723,0.000
1586465049.043,-13.184,-270.020,-794.922,-197.266,0.000
1586465049.046,141.602,488.770,-655.273,-15.625,0.000
1586465049.050,-35.156,197.754,-794.922,115.723,0.000
1586465049.054,-212.891,-233.398,-858.398,-50.781,0.000
1586465049.058,-66.406,-11.719,-812.988,-208.496,0.000
1586465049.062,138.672,216.797,-793.945,-56.641,0.000
1586465049.066,67.871,-312.012,-807.617,145.508,0.000
1586465049.070,-168.945,-567.383,-837.402,36.133,0.000
1586465049.074,-155.273,-52.734,-798.828,-187.500,0.000
1586465049.078,87.402,127.930,-810.059,-145.508,0.000
1586465049.082,89.355,11.230,-878.418,87.402,0.000
1586465049.086,-148.438,-272.461,-851.562,86.426,0.000
1586465049.089,-177.734,-522.949,-876.953,-120.117,0.000
1586465049.093,69.824,-507.812,-901.367,-174.316,0.000
1586465049.097,141.113,-593.262,-898.438,58.594,0.000
1586465049.101,-114.746,-555.664,-887.207,126.465,0.000
1586465049.105,-241.211,-527.832,-909.668,-72.266,0.000
1586465049.109,-14.648,-499.023,-848.633,-186.035,0.000
1586465049.113,171.387,75.684,-699.707,-6.836,0.000
1586465049.117,-14.648,431.152,-722.168,137.695,0.000
1586465049.121,-195.801,-143.066,-896.973,-4.395,0.000
1586465049.125,-94.238,-320.312,-853.027,-194.336,0.000
1586465049.128,100.586,254.883,-712.891,-123.535,0.000
1586465049.132,38.574,210.449,-822.266,97.168,0.000
1586465049.136,-188.965,-332.031,-888.672,32.715,0.000
1586465049.140,-141.113,-815.918,-904.297,-165.039,0.000
1586465049.144,116.699,-414.062,-795.410,-146.484,0.000
1586465049.148,130.371,604.492,-632.324,63.965,0.000
1586465049.152,-107.422,190.430,-816.406,97.656,0.000
1586465049.156,-183.105,-430.664,-910.156,-129.883,0.000
1586465049.160,3.418,17.578,-761.719,-206.543,0.000
1586465049.164,121.094,671.875,-635.254,13.184,0.000
1586465049.168,-65.918,198.730,-817.871,125.488,0.000
1586465049.171,-220.703,-296.387,-888.672,-58.594,0.000
1586465049.175,-40.527,83.984,-773.438,-209.473,0.000
1586465049.179,161.133,285.645,-769.531,-41.016,0.000
1586465049.183,11.719,-176.270,-851.074,153.809,0.000
1586465049.187,-210.938,-701.172,-926.270,36.621,0.000
1586465049.191,-109.863,-154.297,-782.715,-179.688,0.000
1586465049.195,151.367,249.023,-753.418,-87.891,0.000
1586465049.199,127.441,-318.359,-882.324,157.227,0.000
1586465049.203,-163.086,-732.910,-931.152,54.688,0.000
1586465049.207,-194.824,-109.375,-784.668,-198.242,0.000
1586465049.211,80.078,416.992,-710.449,-188.477,0.000
1586465049.214,141.602,270.508,-781.250,63.477,0.000
1586465049.218,-100.098,-52.246,-827.637,91.309,0.000
1586465049.222,-184.082,-195.801,-869.629,-118.164,0.000
1586465049.226,41.504,-218.750,-858.398,-167.969,0.000
1586465049.230,161.133,39.551,-762.695,33.203,0.000
1586465049.234,-61.035,57.129,-783.203,141.113,0.000
1586465049.238,-198.242,-218.262,-862.793,-11.719,0.000
1586465049.242,-28.320,12.207,-796.387,-164.551,0.000
1586465049.246,116.211,-291.992,-812.012,-44.434,0.000
1586465049.250,-32.715,-486.328,-844.238,107.422,0.000
1586465049.253,-269.043,-116.699,-827.637,-41.992,0.000
1586465049.257,-182.617,-325.684,-895.020,-238.770,0.000
1586465049.261,59.570,-65.918,-809.570,-185.059,0.000
1586465049.265,20.996,327.148,-706.543,27.832,0.000
1586465049.269,-217.285,33.203,-829.590,4.395,0.000
1586465049.273,-225.586,-656.250,-950.684,-197.266,0.000
1586465049.277,18.555,-667.480,-870.605,-203.613,0.000
1586465049.281,66.895,243.652,-673.340,-0.977,0.000
1586465049.285,-174.805,329.590,-750.000,32.715,0.000
1586465049.289,-266.602,-433.105,-884.766,-138.672,0.000
1586465049.293,-43.945,-389.648,-779.785,-244.629,0.000
1586465049.296,127.930,519.531,-620.605,-65.918,0.000
1586465049.300,-37.109,394.043,-749.512,95.215,0.000
1586465049.304,-234.375,-393.066,-883.789,-66.406,0.000
1586465049.308,-113.281,-375.977,-828.125,-246.094,0.000
1586465049.312,101.074,142.090,-750.488,-118.164,0.000
1586465049.316,14.648,132.812,-801.270,89.844,0.000
1586465049.320,-197.266,-585.938,-900.879,-4.883,0.000
1586465049.324,-136.719,-769.043,-880.371,-195.312,0.000
1586465049.328,99.121,88.867,-718.750,-130.371,0.000
1586465049.332,97.168,312.012,-737.793,84.473,0.000
1586465049.336,-155.273,-386.230,-869.141,61.523,0.000
1586465049.339,-210.449,-480.957,-847.168,-155.273,0.000
1586465049.343,24.414,34.180,-759.766,-219.727,0.000
1586465049.347,129.883,208.008,-758.789,24.902,0.000
1586465049.351,-91.797,-526.855,-885.254,120.605,0.000
1586465049.355,-233.398,-608.398,-861.328,-95.215,0.000
1586465049.359,-24.902,104.004,-755.371,-207.520,0.000
1586465049.363,144.531,235.352,-784.180,-31.738,0.000
1586465049.367,-24.902,-239.746,-888.672,128.418,0.000
1586465049.371,-221.191,-492.188,-872.070,-21.484,0.000
1586465049.375,-101.562,-312.988,-844.727,-214.355,0.000
1586465049.378,106.934,-254.883,-841.797,-104.980,0.000
1586465049.382,37.109,-597.656,-890.137,111.816,0.000
1586465049.386,-204.590,-519.043,-880.371,27.832,0.000
1586465049.390,-178.711,-113.281,-859.375,-172.852,0.000
1586465049.394,87.402,-211.914,-826.660,-151.855,0.000
1586465049.398,112.793,-33.691,-765.625,73.730,0.000
1586465049.402,-143.555,122.070,-811.035,83.496,0.000
1586465049.406,-207.031,-196.289,-885.254,-154.297,0.000
1586465049.410,21.973,-142.578,-866.211,-188.477,0.000
1586465049.414,147.461,46.875,-817.383,45.898,0.000
1586465049.418,-85.938,17.578,-818.848,93.750,0.000
1586465049.421,-244.141,-194.824,-876.953,-77.637,0.000
1586465049.425,-44.922,-324.219,-863.281,-204.102,0.000
1586465049.429,109.375,177.734,-715.820,-61.035,0.000
1586465049.433,-21.973,246.582,-778.809,124.023,0.000
1586465049.437,-208.984,-329.102,-901.367,2.441,0.000
1586465049.441,-92.285,-788.574,-871.582,-146.973,0.000
1586465049.445,134.766,-231.445,-736.328,-77.148,0.000
1586465049.449,76.172,495.117,-700.195,100.098,0.000
1586465049.453,-189.941,-160.645,-893.555,57.129,0.000
1586465049.457,-191.895,-535.156,-930.664,-133.789,0.000
1586465049.461,62.500,-84.473,-791.016,-123.535,0.000
1586465049.464,83.984,379.395,-708.984,73.730,0.000
1586465049.468,-137.695,-148.926,-807.129,112.305,0.000
1586465049.472,-221.191,-750.977,-923.828,-102.051,0.000
1586465049.476,-5.371,-284.180,-818.359,-194.336,0.000
1586465049.480,136.719,271.484,-696.777,20.508,0.000
1586465049.484,-62.988,-188.477,-833.008,126.953,0.000
1586465049.488,-223.145,-833.008,-954.590,-55.664,0.000
1586465049.492,-61.523,-291.992,-808.105,-217.285,0.000
1586465049.496,132.812,243.164,-736.816,-61.035,0.000
1586465049.500,0.977,85.938,-787.598,140.137,0.000
1586465049.503,-226.562,-315.918,-861.328,14.160,0.000
1586465049.507,-145.508,-373.047,-875.488,-184.082,0.000
1586465049.511,97.168,-184.570,-808.105,-115.234,0.000
1586465049.515,54.199,33.691,-773.926,93.750,0.000
1586465049.519,-187.988,-270.508,-860.840,70.312,0.000
1586465049.523,-187.012,-330.566,-859.375,-154.785,0.000
1586465049.527,47.363,308.594,-693.359,-195.801,0.000
1586465049.531,130.371,-150.391,-825.195,65.918,0.000
1586465049.535,-106.445,-732.910,-901.855,106.934,0.000
1586465049.539,-237.305,-89.844,-782.227,-120.117,0.000
1586465049.543,-13.672,37.598,-806.152,-194.336,0.000
1586465049.546,150.879,36.133,-776.367,-2.441,0.000
1586465049.550,-35.645,29.297,-777.832,130.859,0.000
1586465049.554,-227.051,-388.184,-858.398,-9.766,0.000
1586465049.558,-64.941,-565.918,-922.852,-157.227,0.000
1586465049.562,142.578,-595.703,-831.543,-37.598,0.000
1586465049.566,17.090,-40.039,-686.035,129.883,0.000
1586465049.570,-193.359,-168.945,-875.488,24.414,0.000
1586465049.574,-115.723,-540.527,-869.141,-188.477,0.000
1586465049.578,110.840,145.996,-687.988,-152.344,0.000
1586465049.582,95.215,615.723,-675.293,68.359,0.000
1586465049.586,-163.574,179.688,-831.055,50.293,0.000
1586465049.589,-196.777,-504.883,-883.301,-123.047,0.000
1586465049.593,53.711,-57.617,-682.617,-181.641,0.000
1586465049.597,145.996,638.184,-645.996,11.719,0.000
1586465049.601,-104.492,-5.859,-856.934,118.164,0.000
1586465049.605,-237.793,-511.719,-876.465,-89.355,0.000
1586465049.609,-5.859,-221.680,-765.137,-184.082,0.000
1586465049.613,182.617,343.262,-668.457,23.438,0.000
1586465049.617,-32.715,327.148,-761.230,128.418,0.000
1586465049.621,-248.535,-617.676,-892.578,-49.316,0.000
1586465049.625,-126.953,-475.586,-781.250,-229.004,0.000
1586465049.628,60.547,475.098,-645.996,-152.832,0.000
1586465049.632,-1.465,315.918,-775.879,68.359,0.000
1586465049.636,-251.953,-300.293,-885.742,-21.973,0.000
1586465049.640,-219.238,-212.891,-804.199,-249.023,0.000
1586465049.644,12.695,270.996,-705.078,-204.590,0.000
1586465049.648,19.531,59.570,-789.062,24.414,0.000
1586465049.652,-211.914,-658.203,-930.664,51.270,0.000
1586465049.656,-276.855,-398.438,-807.129,-171.387,0.000
1586465049.660,-0.488,251.465,-697.266,-248.535,0.000
1586465049.664,125.000,2.930,-801.270,-4.395,0.000
1586465049.668,-123.047,-638.184,-927.246,87.891,0.000
1586465049.671,-270.020,-418.945,-850.586,-142.578,0.000
1586465049.675,-74.219,72.754,-764.648,-239.746,0.000
1586465049.679,123.047,305.176,-714.355,-50.293,0.000
1586465049.683,-35.645,186.523,-740.723,89.355,0.000
1586465049.687,-252.930,-87.402,-828.125,-36.133,0.000
1586465049.691,-119.629,-105.469,-826.660,-201.660,0.000
1586465049.695,126.465,-91.309,-794.434,-116.699,0.000
1586465049.699,54.688,-58.105,-749.023,75.684,0.000
1586465049.703,-189.941,-72.754,-797.852,20.996,0.000
1586465049.707,-142.090,-175.293,-847.656,-155.762,0.000
1586465049.711,92.773,-311.523,-767.090,-171.875,0.000
1586465049.714,68.848,85.938,-638.672,31.250,0.000
1586465049.718,-181.152,310.059,-729.980,57.617,0.000
1586465049.722,-236.816,-367.676,-893.555,-139.160,0.000
1586465049.726,-6.836,-453.125,-833.496,-209.961,0.000
1586465049.730,130.371,82.520,-723.633,-7.812,0.000
1586465049.734,-119.629,-214.355,-871.094,83.008,0.000
1586465049.738,-113.770,-98.145,-770.020,19.531,0.000
1586465049.742,-0.977,314.941,-700.684,109.863,0.000
1586465049.746,-201.172,-538.574,-899.414,34.668,0.000
1586465049.750,-104.492,-878.418,-860.840,-195.312,0.000
1586465049.753,114.746,-84.473,-691.895,-153.320,0.000
1586465049.757,71.777,319.824,-677.246,74.219,0.000
1586465049.761,-172.852,-428.223,-847.168,53.223,0.000
1586465049.765,-173.340,-767.090,-889.648,-136.230,0.000
1586465049.769,50.293,10.254,-694.824,-178.223,0.000
1586465049.773,102.539,237.305,-698.242,24.414,0.000
1586465049.777,-117.188,-551.270,-878.418,88.379,0.000
1586465049.781,-223.145,-798.340,-867.676,-102.051,0.000
1586465049.785,12.695,-109.375,-747.559,-184.082,0.000
1586465049.789,164.062,-43.457,-782.227,0.977,0.000
1586465049.793,-53.711,-513.184,-842.285,126.953,0.000
1586465049.796,-240.723,-578.125,-842.773,-35.156,0.000
1586465049.800,-83.008,-126.953,-788.086,-209.961,0.000
1586465049.804,106.445,359.863,-718.262,-78.125,0.000
1586465049.808,19.531,-237.793,-818.848,113.770,0.000
1586465049.812,-216.797,-634.277,-867.676,16.602,0.000
1586465049.816,-168.457,60.059,-766.113,-197.266,0.000
1586465049.820,89.844,225.586,-811.523,-145.020,0.000
1586465049.824,83.008,273.926,-815.430,92.773,0.000
1586465049.828,-179.688,199.219,-788.574,32.227,0.000
1586465049.832,-228.516,-75.195,-848.633,-164.551,0.000
1586465049.836,44.922,-328.125,-889.648,-158.203,0.000
1586465049.839,132.812,-360.840,-855.469,54.688,0.000
1586465049.843,-87.891,-182.129,-812.012,105.957,0.000
1586465049.847,-203.125,-345.703,-896.484,-80.566,0.000
1586465049.851,-27.832,-457.031,-875.488,-184.082,0.000
1586465049.855,124.023,-4.883,-757.812,-29.785,0.000
1586465049.859,-56.152,476.562,-698.242,84.473,0.000
1586465049.863,-239.258,49.316,-837.891,-50.293,0.000
1586465049.867,-84.473,-203.125,-835.449,-200.195,0.000
1586465049.871,123.047,241.211,-681.152,-101.074,0.000
1586465049.875,46.875,470.703,-703.613,109.375,0.000
1586465049.878,-192.871,-35.156,-857.910,32.227,0.000
1586465049.882,-167.480,-542.480,-906.250,-182.129,0.000
1586465049.886,83.984,-73.730,-729.004,-142.578,0.000
1586465049.890,107.910,436.035,-690.918,77.637,0.000
1586465049.894,-125.000,-221.191,-888.672,83.984,0.000
1586465049.898,-182.129,-871.094,-898.926,-103.027,0.000
1586465049.902,36.621,-300.781,-750.000,-174.316,0.000
1586465049.906,143.066,576.172,-623.535,26.855,0.000
1586465049.910,-45.898,174.805,-783.203,141.113,0.000
1586465049.914,-190.918,-423.828,-927.246,-48.340,0.000
1586465049.918,-43.945,-2.441,-751.953,-211.914,0.000
1586465049.921,135.742,479.492,-664.062,-51.270,0.000
1586465049.925,-9.766,7.812,-824.219,141.113,0.000
1586465049.929,-217.285,-859.863,-916.992,17.090,0.000
1586465049.933,-97.656,-538.574,-801.758,-197.754,0.000
1586465049.937,124.023,179.199,-722.168,-118.164,0.000
1586465049.941,59.570,-243.164,-848.145,104.980,0.000
1586465049.945,-186.035,-795.410,-933.594,32.227,0.000
1586465049.949,-160.645,-262.207,-805.176,-189.453,0.000
1586465049.953,102.539,169.922,-777.832,-144.043,0.000
1586465049.957,127.930,-137.695,-798.340,89.844,0.000
1586465049.961,-139.160,-433.105,-837.891,77.148,0.000
1586465049.964,-214.844,-156.250,-821.289,-140.625,0.000
1586465049.968,47.852,288.086,-710.449,-171.387,0.000
1586465049.972,198.730,312.012,-749.023,63.965,0.000
1586465049.976,-44.922,-153.809,-841.309,133.301,0.000
1586465049.980,-244.629,-308.594,-844.727,-62.988,0.000
1586465049.984,-75.684,7.324,-806.641,-193.848,0.000
1586465049.988,132.324,-263.184,-775.391,-27.344,0.000
1586465049.992,-7.324,-322.266,-764.648,140.625,0.000
1586465049.996,-233.398,-15.137,-816.895,7.324,0.000
1586465050.000,-112.305,-182.129,-853.516,-186.523,0.000
1586465050.003,117.188,123.535,-758.789,-116.699,0.000
1586465050.007,62.500,345.215,-738.770,130.859,0.000
1586465050.011,-173.340,-115.723,-860.352,97.656,0.000
1586465050.015,-153.809,-437.500,-884.277,-138.184,0.000
1586465050.019,67.383,-95.703,-806.152,-172.852,0.000
1586465050.023,88.867,228.516,-752.441,39.551,0.000
1586465050.027,-129.395,-68.359,-824.219,80.566,0.000
1586465050.031,-208.008,-669.434,-934.082,-89.844,0.000
1586465050.035,14.648,-756.348,-877.441,-184.570,0.000
1586465050.039,133.301,322.266,-628.418,-25.879,0.000
1586465050.043,-72.266,518.066,-750.000,123.047,0.000
1586465050.046,-237.793,-382.324,-881.836,-31.738,0.000
1586465050.050,-75.195,-297.363,-769.043,-194.824,0.000
1586465050.054,133.789,562.500,-643.555,-52.246,0.000
1586465050.058,16.602,483.887,-735.840,132.324,0.000
1586465050.062,-212.891,-177.246,-863.281,18.555,0.000
1586465050.066,-145.020,-310.059,-856.445,-168.945,0.000
1586465050.070,106.934,-28.320,-815.430,-95.703,0.000
1586465050.074,83.984,42.480,-799.805,127.441,0.000
1586465050.078,-154.297,-590.820,-880.859,123.047,0.000
1586465050.082,-191.895,-647.461,-871.094,-117.188,0.000
1586465050.086,39.062,266.602,-721.680,-163.574,0.000
1586465050.089,131.348,440.430,-697.754,72.754,0.000
1586465050.093,-120.117,-63.477,-847.168,127.441,0.000
1586465050.097,-246.582,-108.398,-816.406,-86.426,0.000
1586465050.101,-28.809,197.266,-730.957,-197.266,0.000
1586465050.105,156.738,171.875,-789.062,4.395,0.000
1586465050.109,5.859,-55.176,-842.773,144.043,0.000
1586465050.113,-192.871,-203.613,-842.773,-17.090,0.000
1586465050.117,-50.293,-339.844,-862.793,-173.828,0.000
1586465050.121,181.152,-387.695,-845.215,-51.758,0.000
1586465050.125,63.477,-425.781,-863.770,137.207,0.000
1586465050.128,-176.270,-525.879,-870.117,44.434,0.000
1586465050.132,-111.816,-284.180,-804.688,-157.715,0.000
1586465050.136,134.766,-133.301,-827.637,-120.117,0.000
1586465050.140,132.324,-748.047,-894.531,119.629,0.000
1586465050.144,-140.137,-463.867,-811.035,88.867,0.000
1586465050.148,-204.102,-112.305,-854.492,-152.344,0.000
1586465050.152,29.297,-155.273,-868.164,-190.918,0.000
1586465050.156,132.324,191.406,-740.234,35.645,0.000
1586465050.160,-77.637,215.332,-753.418,131.348,0.000
1586465050.164,-209.473,-333.496,-889.648,-33.691,0.000
1586465050.168,-7.812,-816.895,-883.301,-161.621,0.000
1586465050.171,176.758,-187.012,-713.867,0.488,0.000
1586465050.175,5.371,450.195,-695.801,144.531,0.000
1586465050.179,-206.543,-145.508,-858.887,1.465,0.000
1586465050.183,-82.031,-429.688,-855.957,-161.133,0.000
1586465050.187,146.484,138.184,-678.223,-62.012,0.000
1586465050.191,77.637,531.738,-630.859,141.113,0.000
1586465050.195,-159.668,-79.590,-855.469,69.336,0.000
1586465050.199,-147.461,-321.777,-883.789,-120.605,0.000
1586465050.203,105.469,270.020,-681.641,-128.906,0.000
1586465050.207,130.371,594.238,-642.090,59.082,0.000
1586465050.211,-127.441,-265.137,-879.395,78.125,0.000
1586465050.214,-199.707,-859.375,-941.406,-125.000,0.000
1586465050.218,42.969,-346.191,-799.805,-181.152,0.000
1586465050.222,169.434,176.270,-718.262,33.203,0.000
1586465050.226,-50.293,-189.453,-789.551,140.137,0.000
1586465050.230,-189.941,-658.691,-875.977,-44.434,0.000
1586465050.234,-38.574,45.898,-724.609,-207.520,0.000
1586465050.238,123.047,626.465,-619.141,-43.457,0.000
1586465050.242,0.488,-80.078,-781.738,147.461,0.000
1586465050.246,-218.262,-660.645,-892.090,13.184,0.000
1586465050.250,-111.816,-143.066,-787.598,-168.945,0.000
1586465050.253,145.020,326.172,-677.246,-60.547,0.000
1586465050.257,79.590,15.625,-774.902,166.992,0.000
1586465050.261,-186.523,-507.324,-864.258,60.059,0.000
1586465050.265,-180.176,-112.305,-763.672,-184.570,0.000
1586465050.269,72.266,184.570,-747.559,-165.039,0.000
1586465050.273,130.371,-214.844,-774.414,95.215,0.000
1586465050.277,-101.562,-357.422,-801.270,121.094,0.000
1586465050.281,-203.125,-135.742,-812.012,-123.047,0.000
1586465050.285,14.160,-34.668,-773.926,-200.195,0.000
1586465050.289,158.691,84.961,-767.090,8.301,0.000
1586465050.293,-53.711,159.180,-727.539,111.328,0.000
1586465050.296,-224.121,-159.668,-830.078,-41.016,0.000
1586465050.300,-42.969,-466.309,-877.441,-179.199,0.000
1586465050.304,153.809,-312.988,-807.617,-64.453,0.000
1586465050.308,28.320,-102.051,-764.160,116.699,0.000
1586465050.312,-203.613,-447.754,-849.609,30.762,0.000
1586465050.316,-109.375,-896.484,-943.359,-158.691,0.000
1586465050.320,133.789,-641.113,-852.539,-118.652,0.000
1586465050.324,71.289,155.273,-691.406,99.609,0.000
1586465050.328,-183.105,-10.254,-813.477,71.777,0.000
1586465050.332,-187.012,-491.211,-874.512,-137.207,0.000
1586465050.336,46.875,-90.332,-727.051,-158.691,0.000
1586465050.339,106.445,568.359,-601.562,66.895,0.000
1586465050.343,-134.277,266.113,-742.676,131.836,0.000
1586465050.347,-216.309,-512.207,-916.504,-71.289,0.000
1586465050.351,17.578,-589.844,-855.469,-168.945,0.000
1586465050.355,130.371,-83.496,-755.371,6.836,0.000
1586465050.359,-59.570,-92.285,-803.223,142.090,0.000
1586465050.363,-228.516,-868.164,-933.105,12.695,0.000
1586465050.367,-84.961,-725.586,-859.863,-187.500,0.000
1586465050.371,125.000,406.738,-592.285,-88.867,0.000
1586465050.375,23.926,344.727,-704.590,119.141,0.000
1586465050.378,-226.562,-566.895,-904.297,34.180,0.000
1586465050.382,-175.293,-312.012,-765.137,-171.875,0.000
1586465050.386,70.312,395.508,-630.859,-163.086,0.000
1586465050.390,82.520,227.539,-738.281,81.055,0.000
1586465050.394,-171.875,-427.734,-934.082,111.328,0.000
1586465050.398,-222.168,-601.074,-906.738,-111.328,0.000
1586465050.402,29.785,-370.605,-845.215,-189.453,0.000
1586465050.406,132.324,-278.809,-814.941,49.316,0.000
1586465050.410,-106.934,-282.715,-801.270,137.207,0.000
1586465050.414,-273.438,-181.152,-830.078,-89.844,0.000
1586465050.418,-54.688,-139.160,-832.520,-207.520,0.000
1586465050.421,144.531,-387.207,-858.887,-13.184,0.000
1586465050.425,-27.344,-658.203,-883.789,128.906,0.000
1586465050.429,-243.652,-247.559,-797.852,-39.062,0.000
1586465050.433,-96.680,-66.406,-805.176,-193.359,0.000
1586465050.437,134.766,73.730,-763.184,-110.352,0.000
1586465050.441,43.945,188.965,-737.793,82.031,0.000
1586465050.445,-201.172,-330.566,-891.602,45.410,0.000
1586465050.449,-176.270,-567.383,-893.555,-154.297,0.000
1586465050.453,104.980,-635.254,-820.801,-143.066,0.000
1586465050.457,106.445,-266.602,-716.309,77.637,0.000
1586465050.461,-186.523,173.340,-733.887,93.750,0.000
1586465050.464,-229.004,-283.203,-869.141,-118.164,0.000
1586465050.468,20.996,-68.848,-737.793,-220.703,0.000
1586465050.472,136.230,555.664,-622.559,-8.789,0.000
1586465050.476,-62.500,211.914,-799.805,109.863,0.000
1586465050.480,-226.074,-547.363,-932.129,-69.336,0.000
1586465050.484,-35.645,-356.934,-830.078,-222.168,0.000
1586465050.488,151.855,271.973,-701.172,-108.398,0.000
1586465050.492,-27.832,-47.363,-831.055,79.590,0.000
1586465050.496,-238.281,-785.645,-947.266,-4.883,0.000
1586465050.500,-151.855,-912.598,-910.156,-198.730,0.000
1586465050.503,74.219,-51.270,-709.473,-170.410,0.000
1586465050.507,20.508,481.934,-689.941,35.645,0.000
1586465050.511,-240.234,-233.887,-845.703,-11.230,0.000
1586465050.515,-216.309,-434.570,-825.684,-221.680,0.000
1586465050.519,6.348,311.035,-667.969,-236.328,0.000
1586465050.523,-0.977,541.504,-696.777,-29.785,0.000
1586465050.527,-240.234,-155.762,-837.891,3.418,0.000
1586465050.531,-314.941,-465.332,-853.027,-241.699,0.000
1586465050.535,-128.906,-194.336,-843.262,-348.145,0.000
1586465050.539,-29.297,16.602,-802.734,-158.203,0.000
1586465050.543,-214.355,-456.055,-843.750,-28.320,0.000
1586465050.546,-389.648,-723.145,-885.742,-214.844,0.000
1586465050.550,-238.281,42.480,-750.488,-395.508,0.000
1586465050.554,-42.480,390.625,-710.938,-259.766,0.000
1586465050.558,-171.875,110.352,-794.922,-70.801,0.000
1586465050.562,-367.188,-198.730,-862.305,-165.527,0.000
1586465050.566,-300.781,-20.020,-797.363,-381.836,0.000
1586465050.570,-57.617,140.625,-778.809,-290.527,0.000
1586465050.574,-40.527,-108.887,-881.836,-2.930,0.000
1586465050.578,-284.668,-259.277,-871.582,-38.574,0.000
1586465050.582,-285.645,-255.371,-850.098,-259.277,0.000
1586465050.586,-11.230,-430.664,-895.020,-270.508,0.000
1586465050.589,77.148,-504.883,-881.836,-14.648,0.000
1586465050.593,-145.996,-359.375,-848.633,85.938,0.000
1586465050.597,-248.047,-639.160,-905.273,-97.656,0.000
1586465050.601,20.508,-573.242,-812.500,-187.500,0.000
1586465050.605,193.359,66.895,-657.715,16.602,0.000
1586465050.609,-16.113,226.074,-718.750,157.227,0.000
1586465050.613,-170.898,-221.680,-867.188,5.859,0.000
1586465050.617,-6.348,-355.469,-819.336,-139.160,0.000
1586465050.621,185.547,88.379,-665.039,-26.367,0.000
1586465050.625,65.430,387.207,-651.367,180.664,0.000
1586465050.628,-144.531,-81.543,-793.457,104.492,0.000
1586465050.632,-37.109,-598.145,-895.996,-107.910,0.000
1586465050.636,181.641,-281.738,-746.094,-58.105,0.000
1586465050.640,144.043,303.223,-645.996,160.645,0.000
1586465050.644,-77.637,-184.082,-851.074,162.109,0.000
1586465050.648,-78.125,-869.141,-886.230,-31.738,0.000
1586465050.652,148.438,-498.535,-743.652,-91.309,0.000
1586465050.656,211.426,268.555,-653.320,111.328,0.000
1586465050.660,-13.184,68.359,-779.785,206.543,0.000
1586465050.664,-102.051,-523.926,-903.320,41.504,0.000
1586465050.668,116.211,-184.570,-765.137,-95.215,0.000
1586465050.671,239.258,414.062,-640.625,51.270,0.000
1586465050.675,41.016,101.562,-779.785,218.262,0.000
1586465050.679,-165.039,-742.188,-926.270,69.824,0.000
1586465050.683,-27.832,-543.457,-832.520,-111.816,0.000
1586465050.687,205.078,18.555,-757.812,-2.441,0.000
1586465050.691,115.723,-361.816,-849.121,211.914,0.000
1586465050.695,-114.258,-830.078,-915.527,123.047,0.000
1586465050.699,-84.473,-314.941,-794.922,-117.676,0.000
1586465050.703,140.625,218.750,-717.285,-106.934,0.000
1586465050.707,169.922,-8.789,-757.812,166.016,0.000
1586465050.711,-73.730,-437.012,-812.500,197.266,0.000
1586465050.714,-141.602,-328.125,-815.430,-55.176,0.000
1586465050.718,96.191,9.277,-780.273,-115.234,0.000
1586465050.722,227.051,179.199,-750.488,110.840,0.000
1586465050.726,10.254,-197.754,-813.477,193.359,0.000
1586465050.730,-154.785,-413.574,-827.148,-6.348,0.000
1586465050.734,47.852,22.949,-762.207,-143.066,0.000
1586465050.738,229.004,-288.086,-824.219,33.203,0.000
1586465050.742,51.758,-455.078,-834.961,232.422,0.000
1586465050.746,-163.086,-45.410,-782.715,83.008,0.000
1586465050.750,-57.129,-182.617,-851.074,-132.812,0.000
1586465050.753,173.828,-14.160,-782.715,-43.457,0.000
1586465050.757,128.906,337.402,-684.082,186.035,0.000
1586465050.761,-157.715,120.605,-799.316,137.207,0.000
1586465050.765,-157.227,-351.562,-876.953,-80.078,0.000
1586465050.769,105.469,-350.098,-862.793,-92.773,0.000
1586465050.773,128.906,-138.672,-818.848,139.648,0.000
1586465050.777,-140.625,-236.816,-842.285,167.480,0.000
1586465050.781,-199.219,-625.000,-874.023,-57.617,0.000
1586465050.785,67.871,-632.812,-855.957,-156.250,0.000
1586465050.789,159.180,106.934,-734.863,32.227,0.000
1586465050.793,-65.918,319.824,-717.773,166.992,0.000
1586465050.796,-188.477,-511.230,-905.762,45.898,0.000
1586465050.800,-2.930,-745.605,-877.930,-113.281,0.000
1586465050.804,162.109,176.270,-650.879,-31.250,0.000
1586465050.808,35.645,266.602,-723.633,178.711,0.000
1586465050.812,-194.824,-355.957,-851.562,68.359,0.000
1586465050.816,-104.492,-420.410,-830.078,-149.902,0.000
1586465050.820,153.809,-94.238,-783.691,-90.332,0.000
1586465050.824,109.863,-93.750,-764.648,117.676,0.000
1586465050.828,-118.652,-674.316,-873.047,136.719,0.000
1586465050.832,-119.629,-743.164,-873.047,-81.543,0.000
1586465050.836,98.633,66.895,-688.477,-153.809,0.000
1586465050.839,146.973,275.391,-696.777,83.008,0.000
1586465050.843,-98.633,-126.953,-817.383,144.531,0.000
1586465050.847,-196.289,-226.074,-793.457,-49.316,0.000
1586465050.851,23.438,118.164,-690.918,-166.016,0.000
1586465050.855,159.668,207.031,-721.191,12.207,0.000
1586465050.859,-47.852,-99.121,-841.797,182.129,0.000
1586465050.863,-226.074,-340.332,-832.031,23.438,0.000
1586465050.867,-27.832,-368.164,-807.129,-156.738,0.000
1586465050.871,181.641,-296.875,-803.711,-40.039,0.000
1586465050.875,48.828,-768.066,-885.742,187.500,0.000
1586465050.878,-192.383,-695.312,-819.824,101.562,0.000
1586465050.882,-134.766,-217.285,-789.062,-132.812,0.000
1586465050.886,114.746,-90.332,-717.773,-125.000,0.000
1586465050.890,105.957,224.609,-603.516,101.562,0.000
1586465050.894,-155.762,174.316,-722.656,103.516,0.000
1586465050.898,-190.918,-258.789,-855.957,-114.746,0.000
1586465050.902,80.566,-235.840,-788.574,-174.805,0.000
1586465050.906,165.039,279.297,-602.051,27.832,0.000
1586465050.910,-86.914,164.062,-764.160,123.047,0.000
1586465050.914,-217.285,-444.336,-896.484,-65.918,0.000
1586465050.918,9.766,-823.242,-874.023,-181.641,0.000
1586465050.921,165.527,-454.102,-787.109,-14.648,0.000
1586465050.925,-33.203,209.961,-703.613,145.508,0.000
1586465050.929,-214.355,-202.637,-852.539,16.602,0.000
1586465050.933,-78.613,-476.562,-850.586,-197.266,0.000
1586465050.937,155.762,114.746,-687.500,-104.980,0.000
1586465050.941,60.547,371.094,-707.520,107.910,0.000
1586465050.945,-183.594,-362.305,-914.551,62.500,0.000
1586465050.949,-126.953,-597.168,-893.066,-130.859,0.000
1586465050.953,129.395,245.605,-643.555,-160.645,0.000
1586465050.957,145.020,662.598,-636.230,56.641,0.000
1586465050.961,-125.000,-269.043,-899.414,119.629,0.000
1586465050.964,-182.129,-935.059,-943.848,-104.492,0.000
1586465050.968,61.523,-435.059,-797.852,-207.520,0.000
1586465050.972,193.359,188.477,-704.590,41.992,0.000
1586465050.976,-57.129,-241.211,-825.684,151.855,0.000
1586465050.980,-227.051,-794.434,-910.156,-62.012,0.000
1586465050.984,-5.371,-153.809,-788.086,-225.098,0.000
1586465050.988,206.055,242.676,-760.742,-28.809,0.000
1586465050.992,92.773,76.172,-791.504,180.664,0.000
1586465050.996,-141.113,-333.008,-869.629,31.738,0.000
1586465051.000,-104.492,-398.438,-894.043,-205.566,0.000
1586465051.003,129.395,-59.082,-811.523,-143.066,0.000
1586465051.007,91.797,-98.633,-809.570,111.328,0.000
1586465051.011,-169.434,-335.938,-849.121,57.617,0.000
1586465051.015,-195.312,-188.477,-825.195,-199.707,0.000
1586465051.019,37.598,22.949,-823.242,-210.449,0.000
1586465051.023,69.824,-250.977,-812.012,32.715,0.000
1586465051.027,-199.219,-235.840,-767.090,56.641,0.000
1586465051.031,-271.973,-12.695,-808.105,-140.625,0.000
1586465051.035,-8.301,-51.758,-846.191,-199.219,0.000
1586465051.039,120.117,205.078,-774.414,-21.973,0.000
1586465051.043,-83.496,263.184,-750.488,117.188,0.000
1586465051.046,-232.910,-25.391,-835.449,-25.391,0.000
1586465051.050,-48.340,-153.809,-845.703,-195.312,0.000
1586465051.054,155.762,-91.309,-813.477,-69.336,0.000
1586465051.058,0.488,57.129,-775.879,108.887,0.000
1586465051.062,-237.305,-229.492,-849.609,-10.254,0.000
1586465051.066,-100.098,-681.152,-917.969,-196.777,0.000
1586465051.070,159.668,-564.941,-830.566,-129.883,0.000
1586465051.074,72.754,192.871,-674.805,86.426,0.000
1586465051.078,-194.824,109.863,-820.801,52.246,0.000
1586465051.082,-188.477,-503.418,-885.742,-149.902,0.000
1586465051.086,68.848,-125.000,-750.488,-195.801,0.000
1586465051.089,137.207,492.676,-679.688,25.879,0.000
1586465051.093,-97.168,80.078,-820.801,119.629,0.000
1586465051.097,-206.055,-428.223,-899.902,-95.703,0.000
1586465051.101,4.395,-219.238,-834.473,-205.566,0.000
1586465051.105,157.227,230.957,-751.465,-2.441,0.000
1586465051.109,-14.648,230.957,-778.809,151.855,0.000
1586465051.113,-180.176,-627.441,-916.992,13.672,0.000
1586465051.117,-39.551,-701.660,-916.504,-203.125,0.000
1586465051.121,154.785,207.520,-767.578,-65.430,0.000
1586465051.125,54.688,290.039,-763.672,163.574,0.000
1586465051.128,-135.742,-268.066,-876.465,51.270,0.000
1586465051.132,-40.527,-213.379,-849.609,-160.645,0.000
1586465051.136,177.246,275.391,-773.926,-164.551,0.000
1586465051.140,142.578,208.984,-799.316,63.965,0.000
1586465051.144,-114.258,-234.863,-913.574,80.566,0.000
1586465051.148,-105.469,-370.605,-888.184,-136.230,0.000
1586465051.152,147.949,-99.609,-835.449,-158.203,0.000
1586465051.156,215.332,-176.270,-895.996,53.711,0.000
1586465051.160,-24.414,-632.812,-932.129,94.727,0.000
1586465051.164,-158.203,-281.738,-853.027,-100.098,0.000
1586465051.168,86.426,251.465,-785.156,-211.914,0.000
1586465051.171,251.953,183.105,-761.719,-15.625,0.000
1586465051.175,48.340,-98.145,-824.219,143.066,0.000
1586465051.179,-151.367,-194.336,-853.516,-17.578,0.000
1586465051.183,-19.531,85.449,-803.223,-221.680,0.000
1586465051.187,199.707,205.566,-733.887,-101.074,0.000
1586465051.191,90.332,215.820,-723.633,134.766,0.000
1586465051.195,-156.250,-17.578,-867.676,43.945,0.000
1586465051.199,-80.078,-352.051,-893.555,-163.086,0.000
1586465051.203,172.852,-19.531,-756.348,-136.719,0.000
1586465051.207,164.062,311.035,-714.844,81.055,0.000
1586465051.211,-103.516,84.473,-855.957,109.863,0.000
1586465051.214,-163.086,-271.973,-898.926,-115.234,0.000
1586465051.218,123.047,-152.832,-795.410,-206.055,0.000
1586465051.222,252.441,425.293,-667.969,12.695,0.000
1586465051.226,-0.488,517.090,-726.562,127.930,0.000
1586465051.230,-142.090,-87.891,-898.438,-55.176,0.000
1586465051.234,45.898,-700.195,-912.598,-190.918,0.000
1586465051.238,206.055,-236.328,-793.945,-34.668,0.000
1586465051.242,50.293,73.242,-833.984,124.512,0.000
1586465051.246,-133.301,-482.910,-910.645,13.184,0.000
1586465051.250,1.465,-836.426,-922.363,-159.668,0.000
1586465051.253,205.078,16.602,-728.516,-124.023,0.000
1586465051.257,87.891,673.828,-668.457,85.449,0.000
1586465051.261,-174.316,57.129,-815.430,62.012,0.000
1586465051.265,-135.254,-128.418,-811.523,-162.109,0.000
1586465051.269,153.320,422.363,-720.703,-176.270,0.000
1586465051.273,180.176,671.875,-683.105,77.637,0.000
1586465051.277,-102.539,225.098,-777.832,115.723,0.000
1586465051.281,-144.531,-47.852,-805.176,-91.309,0.000
1586465051.285,87.402,306.641,-733.398,-153.809,0.000
1586465051.289,174.805,314.941,-779.785,15.625,0.000
1586465051.293,-11.230,-497.559,-879.883,154.785,0.000
1586465051.296,-206.055,-774.902,-891.602,-20.996,0.000
1586465051.300,-84.473,49.805,-728.516,-222.168,0.000
1586465051.304,128.418,448.242,-676.270,-41.992,0.000
1586465051.308,0.488,144.043,-768.066,153.809,0.000
1586465051.312,-208.008,-92.285,-809.082,7.324,0.000
1586465051.316,-114.258,171.875,-739.258,-198.242,0.000
1586465051.320,126.953,333.984,-741.699,-119.629,0.000
1586465051.324,78.125,222.168,-792.480,108.887,0.000
1586465051.328,-177.734,42.969,-800.781,86.914,0.000
1586465051.332,-154.785,-108.398,-840.332,-138.184,0.000
1586465051.336,97.656,-158.203,-827.637,-174.805,0.000
1586465051.339,135.254,18.066,-752.441,75.684,0.000
1586465051.343,-107.422,-102.539,-803.711,140.625,0.000
1586465051.347,-207.031,-277.832,-854.004,-70.801,0.000
1586465051.351,7.812,-411.133,-873.535,-153.809,0.000
1586465051.355,136.719,-463.379,-819.336,34.668,0.000
1586465051.359,-85.449,130.859,-692.871,146.973,0.000
1586465051.363,-268.066,6.836,-804.199,4.395,0.000
1586465051.367,-66.895,-233.887,-832.520,-145.508,0.000
1586465051.371,136.719,25.391,-723.145,-40.527,0.000
1586465051.375,-14.160,206.055,-708.008,150.879,0.000
1586465051.378,-236.816,-133.789,-834.473,66.406,0.000
1586465051.382,-146.484,-603.027,-872.070,-152.832,0.000
1586465051.386,102.051,-269.043,-754.395,-111.816,0.000
1586465051.390,91.309,393.555,-659.180,118.652,0.000
1586465051.394,-162.109,50.293,-812.012,111.816,0.000
1586465051.398,-200.684,-682.129,-883.301,-119.141,0.000
1586465051.402,57.129,-212.891,-708.984,-180.664,0.000
1586465051.406,143.555,546.875,-643.066,66.895,0.000
1586465051.410,-94.238,42.969,-825.195,157.715,0.000
1586465051.414,-210.938,-651.367,-878.418,-47.852,0.000
1586465051.418,11.719,-187.500,-749.512,-173.828,0.000
1586465051.421,170.898,408.203,-704.102,5.859,0.000
1586465051.425,-29.297,80.566,-783.203,180.664,0.000
1586465051.429,-231.934,-615.723,-919.922,34.180,0.000
1586465051.433,-89.355,-448.730,-852.539,-177.246,0.000
1586465051.437,130.859,161.133,-746.094,-63.965,0.000
1586465051.441,20.508,-148.926,-834.473,159.668,0.000
1586465051.445,-246.582,-826.172,-919.434,89.355,0.000
1586465051.449,-207.520,-322.754,-772.461,-125.488,0.000
1586465051.453,58.105,311.035,-682.617,-104.004,0.000
1586465051.457,44.922,229.980,-708.008,114.258,0.000
1586465051.461,-213.867,-215.332,-814.453,115.723,0.000
1586465051.464,-240.723,-367.676,-857.422,-93.750,0.000
1586465051.468,-1.465,-191.895,-816.895,-178.711,0.000
1586465051.472,88.379,25.391,-754.883,27.344,0.000
1586465051.476,-175.293,-186.523,-794.922,136.230,0.000
1586465051.480,-299.805,-424.316,-839.844,-63.477,0.000
1586465051.484,-73.730,73.242,-733.887,-208.496,0.000
1586465051.488,103.516,-322.754,-823.242,-13.184,0.000
1586465051.492,-64.941,-711.914,-864.746,167.480,0.000
1586465051.496,-290.527,-126.465,-783.691,10.254,0.000
1586465051.500,-157.227,-130.371,-836.426,-185.547,0.000
1586465051.503,62.500,73.242,-777.344,-112.305,0.000
1586465051.507,-39.062,388.184,-690.430,115.723,0.000
1586465051.511,-280.762,190.918,-744.629,91.797,0.000
1586465051.515,-227.051,-264.160,-875.000,-143.066,0.000
1586465051.519,15.137,-146.484,-835.938,-175.781,0.000
1586465051.523,38.086,71.289,-769.531,94.238,0.000
1586465051.527,-235.840,-323.730,-850.098,125.000,0.000
1586465051.531,-313.965,-773.438,-918.457,-113.770,0.000
1586465051.535,-73.242,-716.797,-849.609,-187.012,0.000
1586465051.539,10.254,261.719,-611.328,2.441,0.000
1586465051.543,-208.984,392.090,-694.824,138.672,0.000
1586465051.546,-314.941,-406.250,-865.723,3.418,0.000
1586465051.550,-137.207,-337.891,-772.461,-170.898,0.000
1586465051.554,24.414,294.434,-657.227,-52.734,0.000
1586465051.558,-113.281,144.043,-764.160,162.598,0.000
1586465051.562,-349.609,-560.547,-896.973,56.152,0.000
1586465051.566,-245.117,-638.672,-856.934,-178.223,0.000
1586465051.570,9.766,-266.602,-812.500,-132.812,0.000
1586465051.574,-35.156,-145.508,-794.922,118.164,0.000
1586465051.578,-250.488,-666.016,-870.605,129.395,0.000
1586465051.582,-238.770,-700.684,-870.117,-130.371,0.000
1586465051.586,-49.316,-152.832,-827.637,-221.680,0.000
1586465051.589,-17.578,-169.922,-824.219,24.414,0.000
1586465051.593,-248.047,-462.891,-852.539,133.301,0.000
1586465051.597,-311.035,-592.773,-886.230,-57.129,0.000
1586465051.601,-67.871,-261.719,-808.105,-222.168,0.000
1586465051.605,53.711,-168.457,-837.891,-22.949,0.000
1586465051.609,-168.945,-345.215,-879.395,143.555,0.000
1586465051.613,-342.773,-373.047,-845.703,-20.996,0.000
1586465051.617,-153.320,-528.809,-880.859,-194.824,0.000
1586465051.621,52.246,-575.195,-894.043,-60.547,0.000
1586465051.625,-54.688,-651.367,-889.160,167.969,0.000
1586465051.628,-279.297,-720.703,-895.508,62.012,0.000
1586465051.632,-228.516,-460.938,-855.957,-197.266,0.000
1586465051.636,38.574,-488.770,-856.445,-146.484,0.000
1586465051.640,25.391,-721.191,-896.973,134.766,0.000
1586465051.644,-233.398,-520.996,-826.172,116.699,0.000
1586465051.648,-260.742,-593.262,-885.254,-122.559,0.000
1586465051.652,-15.625,-447.754,-843.750,-193.848,0.000
1586465051.656,79.590,47.363,-700.684,35.645,0.000
1586465051.660,-150.879,31.738,-785.645,134.277,0.000
1586465051.664,-260.742,-532.715,-905.762,-61.035,0.000
1586465051.668,-49.805,-946.777,-929.199,-198.730,0.000
1586465051.671,80.078,-598.145,-824.219,-8.301,0.000
1586465051.675,-113.770,109.375,-723.145,137.207,0.000
1586465051.679,-296.387,-319.336,-857.910,-20.996,0.000
1586465051.683,-151.855,-491.211,-835.938,-213.379,0.000
1586465051.687,63.477,89.844,-691.895,-106.445,0.000
1586465051.691,-52.734,247.559,-690.918,115.234,0.000
1586465051.695,-269.531,-331.055,-866.699,41.016,0.000
1586465051.699,-173.340,-740.723,-921.387,-189.453,0.000
1586465051.703,81.055,-370.117,-792.480,-169.434,0.000
1586465051.707,52.734,-20.508,-758.789,79.102,0.000
1586465051.711,-213.379,-549.805,-912.598,101.562,0.000
1586465051.714,-245.117,-918.945,-923.828,-122.070,0.000
1586465051.718,4.883,-483.887,-814.941,-215.820,0.000
1586465051.722,113.281,-61.523,-786.133,22.949,0.000
1586465051.726,-122.070,-277.832,-821.289,168.457,0.000
1586465051.730,-238.281,-682.617,-881.836,-3.906,0.000
1586465051.734,-31.250,-140.137,-777.344,-222.656,0.000
1586465051.738,138.672,231.934,-748.047,-58.105,0.000
1586465051.742,-14.160,-147.949,-827.148,149.414,0.000
1586465051.746,-227.051,-393.555,-851.074,23.926,0.000
1586465051.750,-110.352,-184.082,-809.082,-175.293,0.000
1586465051.753,120.117,110.352,-764.160,-152.832,0.000
1586465051.757,44.434,-169.922,-816.406,93.750,0.000
1586465051.761,-189.453,-673.828,-865.234,74.707,0.000
1586465051.765,-134.277,-451.172,-837.891,-151.855,0.000
1586465051.769,73.730,30.762,-789.551,-160.645,0.000
1586465051.773,92.773,-43.945,-791.504,99.609,0.000
1586465051.777,-163.574,-244.629,-816.895,142.090,0.000
1586465051.781,-230.957,-323.730,-861.328,-97.168,0.000
1586465051.785,32.715,-227.051,-849.121,-208.496,0.000
1586465051.789,143.066,-285.645,-821.777,24.902,0.000
1586465051.793,-72.754,-235.352,-792.969,177.246,0.000
1586465051.796,-208.984,-293.945,-854.004,-25.879,0.000
1586465051.800,-15.137,-443.848,-882.324,-212.891,0.000
1586465051.804,166.992,-340.332,-854.980,-78.125,0.000
1586465051.808,57.617,-229.980,-818.848,166.504,0.000
1586465051.812,-161.133,-477.051,-858.887,47.852,0.000
1586465051.816,-101.562,-901.367,-938.965,-177.734,0.000
1586465051.820,152.832,-721.191,-858.398,-85.449,0.000
1586465051.824,100.586,91.797,-700.195,119.629,0.000
1586465051.828,-157.227,136.230,-799.316,103.516,0.000
1586465051.832,-141.602,-289.062,-834.473,-127.930,0.000
1586465051.836,98.145,-45.410,-737.305,-186.035,0.000
1586465051.839,134.277,307.617,-724.609,48.828,0.000
1586465051.843,-86.914,-99.121,-850.586,117.676,0.000
1586465051.847,-144.043,-434.082,-887.695,-100.586,0.000
1586465051.851,62.988,-279.297,-838.867,-219.727,0.000
1586465051.855,169.434,-13.672,-766.602,-23.926,0.000
1586465051.859,-26.367,60.547,-772.949,152.832,0.000
1586465051.863,-170.898,-639.160,-889.160,0.488,0.000
1586465051.867,-13.672,-586.914,-831.055,-211.914,0.000
1586465051.871,159.668,399.902,-666.016,-79.102,0.000
1586465051.875,66.406,300.781,-733.398,157.715,0.000
1586465051.878,-137.207,-363.281,-850.098,77.637,0.000
1586465051.882,-53.223,-192.383,-772.949,-155.762,0.000
1586465051.886,159.180,345.215,-674.805,-154.785,0.000
1586465051.890,120.117,331.055,-745.117,108.887,0.000
1586465051.894,-101.074,-258.301,-916.016,121.094,0.000
1586465051.898,-123.047,-660.645,-915.039,-119.141,0.000
1586465051.902,91.797,-471.680,-855.957,-181.641,0.000
1586465051.906,165.527,-391.113,-872.559,59.570,0.000
1586465051.910,-43.945,-536.621,-890.137,149.414,0.000
1586465051.914,-120.605,-229.980,-814.453,-73.730,0.000
1586465051.918,97.168,258.789,-738.770,-205.566,0.000
1586465051.921,225.098,16.113,-808.105,-17.090,0.000
1586465051.925,39.062,-530.273,-900.391,147.949,0.000
1586465051.929,-160.156,-135.742,-814.941,-20.508,0.000
1586465051.933,-16.602,110.352,-824.219,-232.422,0.000
1586465051.937,214.844,31.250,-774.414,-116.699,0.000
1586465051.941,123.535,164.062,-733.398,113.281,0.000
1586465051.945,-102.539,-101.074,-875.000,41.504,0.000
1586465051.949,-40.527,-440.430,-900.879,-178.711,0.000
1586465051.953,182.617,-382.812,-801.758,-175.293,0.000
1586465051.957,155.762,-7.812,-733.887,67.871,0.000
1586465051.961,-72.754,249.512,-774.902,102.051,0.000
1586465051.964,-123.047,47.363,-839.355,-139.648,0.000
1586465051.968,98.145,-357.910,-809.570,-219.238,0.000
1586465051.972,181.152,-83.008,-714.355,1.465,0.000
1586465051.976,-34.668,407.715,-725.586,128.418,0.000
1586465051.980,-135.742,-40.527,-866.211,-28.320,0.000
1586465051.984,40.039,-154.297,-864.258,-228.027,0.000
1586465051.988,184.082,324.219,-746.582,-104.004,0.000
1586465051.992,41.992,89.844,-834.961,150.391,0.000
1586465051.996,-128.418,-495.117,-883.789,43.945,0.000
1586465052.000,-5.371,-520.508,-875.000,-185.547,0.000
1586465052.003,185.059,-61.523,-784.180,-128.418,0.000
1586465052.007,79.590,458.008,-686.035,103.027,0.000
1586465052.011,-105.469,-187.988,-862.305,72.754,0.000
1586465052.015,-53.223,-726.562,-906.250,-171.875,0.000
1586465052.019,129.883,218.262,-695.312,-237.305,0.000
1586465052.023,168.945,680.176,-664.062,11.719,0.000
1586465052.027,-24.414,215.820,-803.711,105.957,0.000
1586465052.031,-87.402,29.297,-786.133,-118.652,0.000
1586465052.035,133.789,340.332,-745.605,-236.328,0.000
1586465052.039,239.746,380.371,-781.738,-10.254,0.000
1586465052.043,37.598,-394.531,-867.676,144.043,0.000
1586465052.046,-96.680,-628.906,-885.742,-37.598,0.000
1586465052.050,76.172,166.992,-776.855,-203.613,0.000
1586465052.054,228.516,255.859,-769.043,-46.875,0.000
1586465052.058,104.980,181.641,-741.211,166.992,0.000
1586465052.062,-61.523,214.355,-765.625,66.406,0.000
1586465052.066,18.555,341.797,-735.840,-175.293,0.000
1586465052.070,197.266,353.027,-762.695,-135.742,0.000
1586465052.074,129.395,323.242,-754.883,122.559,0.000
1586465052.078,-91.309,315.430,-711.426,108.887,0.000
1586465052.082,-81.543,217.285,-773.438,-123.535,0.000
1586465052.086,145.508,-78.125,-877.441,-137.695,0.000
1586465052.089,197.266,-276.855,-842.285,83.984,0.000
1586465052.093,-36.621,-166.504,-787.598,154.785,0.000
1586465052.097,-114.746,-137.207,-844.238,-39.062,0.000
1586465052.101,87.891,-124.512,-789.551,-221.680,0.000
1586465052.105,169.434,161.133,-681.152,-38.574,0.000
1586465052.109,3.418,337.891,-749.023,147.949,0.000
1586465052.113,-135.254,-286.621,-911.133,-1.953,0.000
1586465052.117,-19.043,-338.379,-829.590,-216.309,0.000
1586465052.121,153.809,160.645,-700.195,-93.262,0.000
1586465052.125,61.523,344.727,-703.613,135.254,0.000
1586465052.128,-135.254,78.125,-821.289,57.129,0.000
1586465052.132,-64.941,-340.820,-849.609,-143.555,0.000
1586465052.136,133.301,-83.008,-712.402,-146.484,0.000
1586465052.140,102.051,546.875,-626.465,87.891,0.000
1586465052.144,-98.633,282.227,-751.953,137.207,0.000
1586465052.148,-102.539,-209.961,-824.219,-107.910,0.000
1586465052.152,82.031,156.738,-688.477,-202.637,0.000
1586465052.156,133.789,680.664,-594.238,42.969,0.000
1586465052.160,-59.570,320.801,-739.746,176.270,0.000
1586465052.164,-134.277,-358.398,-854.492,-6.836,0.000
1586465052.168,53.223,-219.727,-791.504,-199.707,0.000
1586465052.171,166.504,299.805,-700.684,-56.641,0.000
1586465052.175,1.953,73.730,-790.527,145.020,0.000
1586465052.179,-131.836,-740.234,-944.336,23.926,0.000
1586465052.183,-19.531,-395.020,-791.504,-209.473,0.000
1586465052.187,128.418,222.168,-722.656,-151.855,0.000
1586465052.191,62.500,-134.277,-836.426,99.121,0.000
1586465052.195,-133.789,-538.086,-885.254,91.797,0.000
1586465052.199,-131.348,20.996,-749.023,-157.715,0.000
1586465052.203,61.523,615.234,-677.734,-176.270,0.000
1586465052.207,86.914,219.238,-736.328,103.027,0.000
1586465052.211,-115.723,-167.969,-796.875,159.668,0.000
1586465052.214,-138.184,185.547,-756.836,-103.027,0.000
1586465052.218,47.852,454.102,-706.543,-212.891,0.000
1586465052.222,98.145,284.180,-773.438,40.039,0.000
1586465052.226,-108.398,-58.594,-804.199,185.059,0.000
1586465052.230,-205.078,-145.996,-813.965,3.418,0.000
1586465052.234,-12.207,-18.555,-812.012,-170.898,0.000
1586465052.238,135.742,-221.680,-805.664,-18.555,0.000
1586465052.242,-26.855,-358.887,-859.863,142.578,0.000
1586465052.246,-217.285,128.418,-791.504,15.137,0.000
1586465052.250,-132.812,40.527,-815.918,-187.988,0.000
1586465052.253,50.781,234.863,-722.168,-142.090,0.000
1586465052.257,23.926,628.906,-619.629,86.426,0.000
1586465052.261,-178.223,302.734,-786.621,32.227,0.000
1586465052.265,-164.062,-266.602,-897.461,-192.871,0.000
1586465052.269,42.480,-205.566,-858.887,-216.309,0.000
1586465052.273,70.801,-18.066,-805.664,47.852,0.000
1586465052.277,-125.000,-97.656,-810.059,145.996,0.000
1586465052.281,-191.895,-449.219,-907.715,-74.219,0.000
1586465052.285,-11.719,-868.652,-905.273,-210.449,0.000
1586465052.289,68.848,-18.066,-649.414,-21.484,0.000
1586465052.293,-109.375,596.191,-641.113,138.672,0.000
1586465052.296,-235.840,-36.621,-807.617,-31.250,0.000
1586465052.300,-91.309,-112.793,-777.344,-217.773,0.000
1586465052.304,70.312,407.227,-675.293,-70.801,0.000
1586465052.308,-51.758,355.469,-717.773,145.020,0.000
1586465052.312,-235.840,-161.621,-836.914,55.664,0.000
1586465052.316,-160.645,-214.844,-809.082,-154.785,0.000
1586465052.320,47.363,-58.594,-797.852,-131.348,0.000
1586465052.324,4.883,-42.480,-780.273,111.816,0.000
1586465052.328,-202.637,-595.215,-895.020,132.812,0.000
1586465052.332,-199.219,-739.746,-887.207,-112.305,0.000
1586465052.336,-7.324,193.359,-658.691,-178.711,0.000
1586465052.339,50.781,389.648,-679.688,70.312,0.000
1586465052.343,-142.578,-255.371,-838.379,163.086,0.000
1586465052.347,-252.441,-387.207,-824.219,-52.734,0.000
1586465052.351,-84.473,200.684,-700.195,-234.863,0.000
1586465052.355,55.176,246.094,-755.859,-16.602,0.000
1586465052.359,-94.238,-44.434,-850.098,173.828,0.000
1586465052.363,-254.395,-174.316,-842.773,13.184,0.000
1586465052.367,-94.727,-301.758,-851.074,-189.941,0.000
1586465052.371,84.961,-301.270,-834.961,-86.426,0.000
1586465052.375,-50.293,-335.449,-816.406,135.742,0.000
1586465052.378,-239.258,-337.891,-826.660,42.480,0.000
1586465052.382,-180.664,-47.852,-783.203,-186.523,0.000
1586465052.386,44.434,-218.750,-816.895,-155.273,0.000
1586465052.390,29.297,-608.398,-856.445,95.703,0.000
1586465052.394,-208.984,-131.348,-747.559,107.422,0.000
1586465052.398,-213.379,-28.320,-826.660,-112.793,0.000
1586465052.402,3.906,-289.551,-850.586,-195.801,0.000
1586465052.406,40.527,-41.504,-726.562,20.020,0.000
1586465052.410,-145.508,162.109,-750.977,143.066,0.000
1586465052.414,-236.328,-237.305,-869.141,-58.105,0.000
1586465052.418,-76.172,-457.520,-848.145,-246.582,0.000
1586465052.421,52.246,-67.383,-756.836,-59.082,0.000
1586465052.425,-85.938,241.211,-722.656,144.043,0.000
1586465052.429,-241.699,-88.379,-845.215,-13.184,0.000
1586465052.433,-126.465,-679.199,-866.699,-220.703,0.000
1586465052.437,54.688,-281.738,-727.539,-123.047,0.000
1586465052.441,-56.641,407.227,-685.059,116.699,0.000
1586465052.445,-254.395,-56.152,-837.402,71.289,0.000
1586465052.449,-197.266,-331.543,-867.188,-183.105,0.000
1586465052.453,-1.465,142.578,-722.656,-201.660,0.000
1586465052.457,11.230,335.938,-724.121,64.453,0.000
1586465052.461,-173.340,-364.258,-894.043,117.676,0.000
1586465052.464,-212.891,-854.004,-925.293,-111.328,0.000
1586465052.468,-51.270,-412.598,-827.148,-216.309,0.000
1586465052.472,15.625,-4.883,-807.617,0.000,0.000
1586465052.476,-152.832,-249.023,-825.684,153.809,0.000
1586465052.480,-257.324,-458.984,-855.957,-53.223,0.000
1586465052.484,-99.121,13.672,-777.832,-277.832,0.000
1586465052.488,58.105,241.211,-757.812,-95.215,0.000
1586465052.492,-60.547,-74.219,-816.406,128.418,0.000
1586465052.496,-236.816,-382.812,-854.980,-6.348,0.000
1586465052.500,-137.695,-153.809,-814.941,-227.539,0.000
1586465052.503,62.988,179.199,-775.391,-131.348,0.000
1586465052.507,-2.441,-257.812,-866.699,119.629,0.000
1586465052.511,-208.984,-640.137,-881.348,61.035,0.000
1586465052.515,-193.359,-248.047,-830.566,-188.965,0.000
1586465052.519,4.883,-62.500,-848.633,-204.590,0.000
1586465052.523,27.344,-549.805,-833.984,89.844,0.000
1586465052.527,-213.379,-563.965,-827.148,150.391,0.000
1586465052.531,-272.949,7.324,-789.062,-130.371,0.000
1586465052.535,-66.406,26.855,-801.270,-247.070,0.000
1586465052.539,38.574,60.547,-812.988,-7.812,0.000
1586465052.543,-141.113,143.066,-778.320,175.293,0.000
1586465052.546,-248.535,-20.020,-841.309,6.836,0.000
1586465052.550,-70.312,-223.633,-890.625,-185.547,0.000
1586465052.554,72.266,-374.512,-883.301,-36.621,0.000
1586465052.558,-42.480,-208.496,-833.008,134.766,0.000
1586465052.562,-215.820,-339.355,-870.117,1.465,0.000
1586465052.566,-140.625,-759.277,-909.668,-207.031,0.000
1586465052.570,47.363,-419.922,-843.750,-150.391,0.000
1586465052.574,24.414,160.156,-774.414,104.492,0.000
1586465052.578,-159.180,-34.668,-841.309,109.863,0.000
1586465052.582,-129.883,-690.918,-932.129,-116.211,0.000
1586465052.586,65.430,-758.301,-883.301,-177.246,0.000
1586465052.589,56.152,129.883,-719.238,22.949,0.000
1586465052.593,-151.855,152.832,-816.406,101.562,0.000
1586465052.597,-209.961,-392.090,-915.527,-100.098,0.000
1586465052.601,-40.527,-510.742,-876.465,-251.953,0.000
1586465052.605,71.289,-114.746,-793.457,-60.547,0.000
1586465052.609,-76.660,116.699,-797.852,111.816,0.000
1586465052.613,-176.758,-615.234,-896.484,-27.832,0.000
1586465052.617,-68.359,-585.449,-863.281,-221.680,0.000
1586465052.621,52.734,302.246,-733.887,-151.855,0.000
1586465052.625,-25.879,216.797,-786.621,90.332,0.000
1586465052.628,-186.035,-268.066,-886.230,39.551,0.000
1586465052.632,-105.957,-183.594,-835.449,-206.543,0.000
1586465052.636,78.125,-36.621,-839.355,-182.617,0.000
1586465052.640,49.316,-187.988,-886.230,87.891,0.000
1586465052.644,-134.766,-311.523,-919.434,124.023,0.000
1586465052.648,-130.371,-425.781,-900.391,-118.652,0.000
1586465052.652,73.730,-281.738,-838.867,-208.008,0.000
1586465052.656,109.863,-296.387,-867.188,55.664,0.000
1586465052.660,-91.309,-633.789,-897.949,156.250,0.000
1586465052.664,-166.504,-269.531,-814.941,-100.586,0.000
1586465052.668,-13.672,161.621,-787.109,-264.648,0.000
1586465052.671,118.164,101.562,-763.672,-62.988,0.000
1586465052.675,-2.930,-66.895,-788.086,132.812,0.000
1586465052.679,-169.434,-43.457,-810.547,-17.090,0.000
1586465052.683,-37.109,-123.047,-865.234,-216.797,0.000
1586465052.687,164.062,-144.043,-822.754,-87.402,0.000
1586465052.691,65.918,-64.941,-808.105,147.949,0.000
1586465052.695,-131.836,-302.734,-895.996,70.312,0.000
1586465052.699,-86.426,-320.312,-850.098,-158.691,0.000
1586465052.703,112.793,-630.371,-895.996,-140.137,0.000
1586465052.707,94.238,-635.254,-856.445,97.168,0.000
1586465052.711,-126.953,55.664,-779.785,116.699,0.000
1586465052.714,-151.367,-105.957,-855.957,-89.844,0.000
1586465052.718,56.641,-127.441,-807.129,-188.965,0.000
1586465052.722,161.621,373.535,-673.340,15.625,0.000
1586465052.726,-22.949,455.078,-696.289,162.598,0.000
1586465052.730,-168.457,-153.320,-878.418,-22.949,0.000
1586465052.734,-32.715,-312.500,-860.352,-225.098,0.000
1586465052.738,124.512,184.570,-731.445,-42.969,0.000
1586465052.742,-11.230,0.000,-814.453,152.832,0.000
1586465052.746,-167.969,-600.586,-927.246,0.488,0.000
1586465052.750,-40.527,-905.273,-936.035,-168.945,0.000
1586465052.753,121.094,-382.812,-798.340,-102.539,0.000
1586465052.757,41.016,224.121,-732.910,113.770,0.000
1586465052.761,-145.996,-72.266,-782.227,101.562,0.000
1586465052.765,-111.328,-114.258,-755.371,-132.812,0.000
1586465052.769,84.961,317.383,-711.914,-175.781,0.000
1586465052.773,97.168,426.758,-708.008,79.102,0.000
1586465052.777,-78.613,88.379,-775.391,149.414,0.000
1586465052.781,-125.488,-105.469,-769.043,-87.402,0.000
1586465052.785,38.086,218.262,-728.516,-210.938,0.000
1586465052.789,129.395,191.406,-784.668,19.043,0.000
1586465052.793,-27.344,-438.477,-818.848,169.434,0.000
1586465052.796,-162.109,-509.766,-780.273,-22.949,0.000
1586465052.800,-34.180,90.820,-712.402,-215.332,0.000
1586465052.804,139.160,446.289,-685.059,-52.734,0.000
1586465052.808,33.203,-246.094,-766.602,183.105,0.000
1586465052.812,-139.648,-742.188,-820.312,78.125,0.000
1586465052.816,-58.594,-65.430,-727.051,-173.828,0.000
1586465052.820,140.625,212.402,-700.684,-122.559,0.000
1586465052.824,78.613,125.488,-754.883,115.234,0.000
1586465052.828,-132.812,75.195,-747.559,108.887,0.000
1586465052.832,-86.426,-12.207,-774.902,-132.324,0.000
1586465052.836,123.047,-216.309,-854.980,-196.289,0.000
1586465052.839,151.367,-327.148,-796.875,50.293,0.000
1586465052.843,-55.176,-130.859,-747.070,114.746,0.000
1586465052.847,-125.977,-203.613,-843.262,-95.215,0.000
1586465052.851,43.945,-192.871,-758.789,-221.680,0.000
1586465052.855,140.137,169.434,-643.555,-21.973,0.000
1586465052.859,-21.973,352.539,-684.082,125.977,0.000
1586465052.863,-149.902,27.832,-802.246,-28.809,0.000
1586465052.867,4.395,-180.664,-805.176,-203.613,0.000
1586465052.871,175.293,-58.594,-723.145,-99.121,0.000
1586465052.875,25.879,247.559,-668.945,116.211,0.000
1586465052.878,-170.410,155.762,-765.137,28.320,0.000
1586465052.882,-63.965,-384.766,-859.863,-190.430,0.000
1586465052.886,133.301,-285.156,-745.117,-136.719,0.000
1586465052.890,106.445,339.844,-642.578,101.074,0.000
1586465052.894,-87.402,153.809,-774.902,102.539,0.000
1586465052.898,-95.703,-539.062,-829.590,-112.305,0.000
1586465052.902,91.309,-286.133,-723.145,-183.105,0.000
1586465052.906,163.086,332.031,-687.012,30.273,0.000
1586465052.910,-7.812,93.750,-771.973,141.602,0.000
1586465052.914,-124.023,-264.648,-862.305,-72.754,0.000
1586465052.918,42.969,52.734,-736.328,-243.164,0.000
1586465052.921,167.480,460.938,-645.508,-38.574,0.000
1586465052.925,0.977,110.352,-768.555,133.789,0.000
1586465052.929,-140.625,-549.805,-926.270,-15.137,0.000
1586465052.933,-15.137,-556.641,-863.770,-208.984,0.000
1586465052.937,146.973,-77.148,-752.441,-133.301,0.000
1586465052.941,73.730,-173.828,-834.961,120.605,0.000
1586465052.945,-116.699,-714.355,-909.180,71.777,0.000
1586465052.949,-109.863,-135.742,-733.398,-205.566,0.000
1586465052.953,84.473,441.895,-670.898,-190.430,0.000
1586465052.957,91.797,219.238,-721.680,77.148,0.000
1586465052.961,-120.117,18.066,-769.043,96.191,0.000
1586465052.964,-141.113,27.344,-784.180,-130.859,0.000
1586465052.968,48.340,178.711,-738.770,-200.195,0.000
1586465052.972,88.379,160.156,-785.645,20.996,0.000
1586465052.976,-74.707,-201.172,-830.078,119.141,0.000
1586465052.980,-171.875,-209.473,-799.316,-54.688,0.000
1586465052.984,-12.695,68.848,-784.180,-239.746,0.000
1586465052.988,124.023,-80.566,-750.488,-88.867,0.000
1586465052.992,-22.461,30.273,-664.551,116.699,0.000
1586465052.996,-173.340,274.902,-698.242,-22.949,0.000
1586465053.000,-39.551,172.363,-767.578,-232.910,0.000
1586465053.003,141.602,-373.535,-787.109,-133.789,0.000
1586465053.007,45.410,-173.340,-675.293,92.285,0.000
1586465053.011,-162.109,321.289,-725.098,52.246,0.000
1586465053.015,-140.625,-92.773,-853.027,-169.434,0.000
1586465053.019,35.156,-108.398,-859.375,-190.918,0.000
1586465053.023,32.715,37.109,-794.922,60.059,0.000
1586465053.027,-164.062,-28.320,-783.691,85.938,0.000
1586465053.031,-194.336,-434.082,-902.832,-113.281,0.000
1586465053.035,0.488,-613.770,-869.141,-209.473,0.000
1586465053.039,31.250,267.578,-661.621,-72.754,0.000
1586465053.043,-170.898,419.922,-740.234,21.973,0.000
1586465053.046,-297.852,-233.398,-850.098,-159.668,0.000
1586465053.050,-207.520,-90.332,-746.094,-370.605,0.000
1586465053.054,-85.449,567.871,-653.809,-267.578,0.000
1586465053.058,-211.426,474.609,-750.000,-83.008,0.000
1586465053.062,-386.719,-32.715,-834.961,-173.828,0.000
1586465053.066,-309.082,-48.340,-813.477,-420.898,0.000
1586465053.070,-155.273,88.867,-820.801,-409.668,0.000
1586465053.074,-217.285,101.562,-785.645,-153.809,0.000
1586465053.078,-396.973,-509.277,-889.160,-142.090,0.000
1586465053.082,-370.117,-688.965,-880.859,-375.000,0.000
1586465053.086,-154.297,219.727,-701.660,-404.785,0.000
1586465053.089,-81.543,402.344,-717.773,-144.043,0.000
1586465053.093,-251.465,7.812,-809.570,-54.688,0.000
1586465053.097,-285.156,8.301,-789.062,-254.395,0.000
1586465053.101,-74.707,204.102,-772.949,-347.168,0.000
1586465053.105,31.738,25.391,-841.797,-112.793,0.000
1586465053.109,-124.512,-142.578,-824.707,52.734,0.000
1586465053.113,-249.512,-27.832,-798.828,-98.633,0.000
1586465053.117,-80.566,-129.395,-845.215,-247.559,0.000
1586465053.121,100.098,-275.879,-852.051,-68.848,0.000
1586465053.125,-28.809,-422.852,-851.074,148.438,0.000
1586465053.128,-211.914,-224.121,-779.785,30.762,0.000
1586465053.132,-129.395,172.852,-726.074,-205.078,0.000
1586465053.136,83.008,-56.152,-804.199,-137.207,0.000
1586465053.140,64.453,-344.727,-851.562,131.836,0.000
1586465053.144,-145.508,-2.930,-743.164,131.348,0.000
1586465053.148,-125.000,68.848,-780.273,-73.730,0.000
1586465053.152,108.887,-12.695,-778.809,-149.902,0.000
1586465053.156,136.719,267.090,-654.785,50.293,0.000
1586465053.160,-63.965,228.027,-746.582,162.109,0.000
1586465053.164,-134.277,-255.859,-869.141,-21.484,0.000
1586465053.168,39.551,-785.645,-909.180,-127.930,0.000
1586465053.171,147.949,-479.492,-801.758,70.312,0.000
1586465053.175,-8.789,314.941,-656.738,206.543,0.000
1586465053.179,-118.164,-72.266,-814.453,45.410,0.000
1586465053.183,-6.348,-277.832,-814.941,-145.996,0.000
1586465053.187,133.301,277.344,-655.762,-27.344,0.000
1586465053.191,53.223,476.562,-642.090,191.895,0.000
1586465053.195,-111.328,-19.531,-805.664,147.949,0.000
1586465053.199,-61.035,-346.191,-858.398,-69.336,0.000
1586465053.203,112.305,165.039,-665.039,-94.727,0.000
1586465053.207,100.586,412.598,-682.129,164.551,0.000
1586465053.211,-89.355,-306.641,-882.812,195.312,0.000
1586465053.214,-104.492,-810.547,-897.949,-34.668,0.000
1586465053.218,80.078,-323.242,-776.367,-106.934,0.000
1586465053.222,125.488,17.578,-756.348,113.770,0.000
1586465053.226,-79.590,-289.551,-796.875,207.520,0.000
1586465053.230,-178.711,-356.934,-801.758,-9.277,0.000
1586465053.234,9.766,69.336,-739.258,-144.043,0.000
1586465053.238,156.738,377.930,-661.621,48.340,0.000
1586465053.242,-15.625,93.750,-734.375,194.824,0.000
1586465053.246,-179.688,-297.363,-838.379,37.109,0.000
1586465053.250,-61.523,-96.191,-781.738,-163.086,0.000
1586465053.253,92.773,182.617,-716.797,-68.359,0.000
1586465053.257,19.531,-189.453,-822.266,180.664,0.000
1586465053.261,-155.273,-526.855,-873.535,135.254,0.000
1586465053.265,-109.375,-182.617,-773.926,-116.699,0.000
1586465053.269,92.773,158.203,-739.258,-141.113,0.000
1586465053.273,113.770,-417.969,-834.473,122.559,0.000
1586465053.277,-75.195,-802.246,-902.832,169.922,0.000
1586465053.281,-114.258,-382.324,-826.660,-72.754,0.000
1586465053.285,71.777,-45.410,-752.441,-171.387,0.000
1586465053.289,156.250,12.207,-743.164,55.176,0.000
1586465053.293,-38.086,-34.180,-768.066,184.082,0.000
1586465053.296,-167.969,-29.297,-773.926,-1.465,0.000
1586465053.300,-4.883,-124.023,-833.008,-177.246,0.000
1586465053.304,158.203,-297.363,-889.160,23.438,0.000
1586465053.308,28.320,-106.934,-761.230,211.426,0.000
1586465053.312,-146.973,-141.113,-804.199,51.270,0.000
1586465053.316,-26.367,-633.789,-920.410,-127.930,0.000
1586465053.320,149.902,-585.449,-822.754,-71.289,0.000
1586465053.324,66.406,130.371,-660.645,124.512,0.000
1586465053.328,-153.320,77.637,-790.527,98.633,0.000
1586465053.332,-140.137,-375.977,-818.848,-125.488,0.000
1586465053.336,68.848,-277.832,-782.715,-166.992,0.000
1586465053.339,89.355,79.590,-759.766,56.641,0.000
1586465053.343,-99.609,-48.828,-804.199,131.836,0.000
1586465053.347,-136.230,-498.535,-887.695,-58.105,0.000
1586465053.351,44.434,-562.500,-855.957,-179.688,0.000
1586465053.355,132.812,-230.469,-787.598,1.953,0.000
1586465053.359,-25.391,-27.344,-782.715,139.648,0.000
1586465053.363,-124.512,-622.070,-887.695,-10.254,0.000
1586465053.367,-15.625,-588.379,-850.586,-179.199,0.000
1586465053.371,148.926,368.652,-689.453,-66.895,0.000
1586465053.375,37.598,279.297,-756.348,132.812,0.000
1586465053.378,-194.824,-263.672,-848.633,40.527,0.000
1586465053.382,-108.398,-18.066,-737.793,-188.477,0.000
1586465053.386,93.750,458.984,-657.715,-120.117,0.000
1586465053.390,56.152,338.867,-750.000,114.746,0.000
1586465053.394,-131.836,-158.691,-895.020,86.914,0.000
1586465053.398,-115.723,-304.199,-846.191,-128.906,0.000
1586465053.402,63.477,-124.512,-782.227,-184.570,0.000
1586465053.406,96.680,-134.277,-817.383,46.387,0.000
1586465053.410,-96.680,-338.379,-874.512,135.742,0.000
1586465053.414,-163.086,-177.734,-818.359,-69.336,0.000
1586465053.418,-0.977,183.594,-710.938,-207.031,0.000
1586465053.421,116.699,-24.414,-783.203,-6.348,0.000
1586465053.425,-14.160,-373.047,-862.793,149.902,0.000
1586465053.429,-177.734,-69.824,-781.738,-38.086,0.000
1586465053.433,-65.918,54.688,-805.664,-229.492,0.000
1586465053.437,125.000,-183.105,-812.012,-67.871,0.000
1586465053.441,69.824,-239.258,-796.875,171.387,0.000
1586465053.445,-134.277,-125.000,-811.035,63.965,0.000
1586465053.449,-117.676,-223.145,-826.660,-165.039,0.000
1586465053.453,89.844,-536.133,-848.633,-124.512,0.000
1586465053.457,94.727,-469.727,-802.734,81.543,0.000
1586465053.461,-127.441,243.164,-698.242,76.172,0.000
1586465053.464,-139.648,5.859,-804.199,-122.070,0.000
1586465053.468,78.613,-188.965,-806.641,-185.059,0.000
1586465053.472,129.883,295.410,-676.270,30.273,0.000
1586465053.476,-59.082,403.320,-687.988,122.559,0.000
1586465053.480,-153.320,-135.254,-861.328,-55.664,0.000
1586465053.484,-1.953,-222.168,-828.125,-206.055,0.000
1586465053.488,124.023,319.336,-676.270,-16.113,0.000
1586465053.492,-15.137,185.059,-765.137,171.875,0.000
1586465053.496,-168.457,-416.504,-890.137,3.418,0.000
1586465053.500,-50.781,-898.438,-916.992,-171.875,0.000
1586465053.503,114.258,-250.488,-730.469,-97.656,0.000
1586465053.507,33.203,418.457,-681.152,118.164,0.000
1586465053.511,-150.879,-254.883,-840.820,123.535,0.000
1586465053.515,-109.375,-475.098,-840.332,-147.949,0.000
1586465053.519,81.055,150.391,-708.984,-198.730,0.000
1586465053.523,62.988,445.312,-641.602,72.754,0.000
1586465053.527,-131.348,-89.844,-792.480,106.934,0.000
1586465053.531,-149.902,-492.676,-838.379,-121.094,0.000
1586465053.535,38.574,42.480,-714.844,-201.660,0.000
1586465053.539,104.980,139.160,-771.973,-1.953,0.000
1586465053.543,-68.359,-589.844,-888.184,133.301,0.000
1586465053.546,-163.574,-827.637,-934.570,-34.668,0.000
1586465053.550,-32.715,-154.297,-787.109,-225.586,0.000
1586465053.554,102.539,359.375,-682.129,-39.062,0.000
1586465053.558,-17.090,166.992,-733.398,154.785,0.000
1586465053.562,-183.594,-57.129,-773.438,-0.977,0.000
1586465053.566,-83.496,145.508,-755.371,-196.777,0.000
1586465053.570,99.609,198.730,-750.488,-104.004,0.000
1586465053.574,59.570,81.055,-766.602,117.676,0.000
1586465053.578,-120.605,-20.020,-779.297,87.402,0.000
1586465053.582,-118.652,-35.156,-806.152,-126.953,0.000
1586465053.586,76.660,-304.688,-886.719,-132.324,0.000
1586465053.589,88.379,-500.488,-847.656,80.078,0.000
1586465053.593,-122.559,-358.887,-807.129,112.305,0.000
1586465053.597,-179.688,-238.770,-825.195,-99.121,0.000
1586465053.601,14.160,-171.387,-754.395,-227.539,0.000
1586465053.605,105.957,-107.422,-752.441,-9.766,0.000
1586465053.609,-65.918,152.832,-731.934,141.113,0.000
1586465053.613,-187.988,40.039,-774.414,-57.617,0.000
1586465053.617,-73.730,-165.527,-795.410,-230.469,0.000
1586465053.621,87.402,160.645,-653.809,-69.336,0.000
1586465053.625,-20.508,387.207,-688.965,120.605,0.000
1586465053.628,-185.547,-79.102,-840.820,23.438,0.000
1586465053.632,-76.660,-529.785,-862.305,-153.809,0.000
1586465053.636,95.215,-339.844,-769.531,-127.441,0.000
1586465053.640,24.902,254.883,-659.180,82.520,0.000
1586465053.644,-175.293,120.605,-768.555,67.383,0.000
1586465053.648,-137.207,-753.418,-922.852,-146.973,0.000
1586465053.652,72.266,-597.168,-828.613,-183.105,0.000
1586465053.656,90.820,372.070,-631.836,37.598,0.000
1586465053.660,-108.887,207.031,-746.582,108.398,0.000
1586465053.664,-171.875,-423.340,-872.070,-83.984,0.000
1586465053.668,-10.254,-43.945,-736.816,-217.773,0.000
1586465053.671,98.145,556.641,-599.121,-48.828,0.000
1586465053.675,-41.504,176.270,-751.953,156.738,0.000
1586465053.679,-181.641,-574.219,-931.641,25.391,0.000
1586465053.683,-73.242,-449.707,-795.410,-205.566,0.000
1586465053.687,77.148,119.629,-704.102,-99.121,0.000
1586465053.691,-17.090,-180.176,-818.848,129.395,0.000
1586465053.695,-170.410,-699.707,-884.766,42.480,0.000
1586465053.699,-93.262,-193.359,-739.746,-188.477,0.000
1586465053.703,69.824,410.645,-655.273,-169.434,0.000
1586465053.707,44.434,189.941,-737.305,58.105,0.000
1586465053.711,-165.039,-73.242,-760.254,82.520,0.000
1586465053.714,-176.758,103.027,-718.262,-134.766,0.000
1586465053.718,26.367,287.109,-690.918,-205.078,0.000
1586465053.722,88.379,58.594,-770.508,49.316,0.000
1586465053.726,-85.449,-358.887,-851.074,145.996,0.000
1586465053.730,-148.926,-386.719,-826.172,-71.777,0.000
1586465053.734,-6.836,120.117,-707.031,-239.258,0.000
1586465053.738,86.914,-277.832,-821.777,-15.625,0.000
1586465053.742,-50.781,-614.746,-843.750,178.223,0.000
1586465053.746,-208.008,-125.000,-772.461,0.977,0.000
1586465053.750,-78.125,-268.066,-847.656,-198.242,0.000
1586465053.753,91.309,-185.059,-759.766,-78.613,0.000
1586465053.757,-0.977,115.234,-683.594,146.973,0.000
1586465053.761,-189.941,48.340,-759.766,52.734,0.000
1586465053.765,-128.418,-320.312,-870.605,-173.340,0.000
1586465053.769,62.500,-228.516,-840.820,-153.320,0.000
1586465053.773,55.664,-64.453,-766.113,84.961,0.000
1586465053.777,-119.629,-187.988,-794.922,95.215,0.000
1586465053.781,-162.109,-551.758,-894.043,-113.770,0.000
1586465053.785,25.391,-716.309,-863.770,-182.617,0.000
1586465053.789,114.746,252.441,-590.820,5.859,0.000
1586465053.793,-61.035,481.445,-678.223,132.324,0.000
1586465053.796,-175.293,-221.680,-830.566,-25.879,0.000
1586465053.800,-33.203,-127.441,-723.633,-214.844,0.000
1586465053.804,111.816,247.559,-710.449,-64.941,0.000
1586465053.808,-32.227,30.273,-811.523,136.719,0.000
1586465053.812,-187.500,-323.242,-810.547,7.324,0.000
1586465053.816,-89.844,-178.711,-765.137,-200.195,0.000
1586465053.820,79.590,-36.133,-800.781,-105.957,0.000
1586465053.824,19.043,-86.914,-781.738,122.559,0.000
1586465053.828,-153.320,-586.914,-871.582,90.820,0.000
1586465053.832,-126.465,-628.906,-856.445,-135.254,0.000
1586465053.836,47.363,307.129,-646.973,-184.570,0.000
1586465053.839,59.082,383.301,-673.340,50.293,0.000
1586465053.843,-135.254,-41.992,-775.879,100.098,0.000
1586465053.847,-184.570,-11.719,-744.141,-103.516,0.000
1586465053.851,8.301,282.715,-683.105,-214.844,0.000
1586465053.855,136.719,213.867,-740.234,-1.465,0.000
1586465053.859,-37.598,-76.172,-827.148,147.461,0.000
1586465053.863,-179.199,-309.082,-831.543,-55.176,0.000
1586465053.867,-37.109,-354.980,-788.574,-190.918,0.000
1586465053.871,128.418,-166.504,-805.176,-25.391,0.000
1586465053.875,16.113,-628.418,-866.211,169.922,0.000
1586465053.878,-180.176,-518.555,-791.016,31.738,0.000
1586465053.882,-68.848,38.086,-790.039,-205.078,0.000
1586465053.886,121.582,-84.961,-752.930,-117.188,0.000
1586465053.890,48.828,-109.375,-725.098,117.676,0.000
1586465053.894,-148.926,131.348,-724.609,93.750,0.000
1586465053.898,-132.324,17.090,-783.691,-116.699,0.000
1586465053.902,53.223,-157.715,-798.828,-179.688,0.000
1586465053.906,71.289,86.426,-701.660,54.199,0.000
1586465053.910,-107.422,123.047,-763.672,150.391,0.000
1586465053.914,-156.738,-321.777,-867.676,-68.848,0.000
1586465053.918,20.020,-722.168,-877.441,-179.199,0.000
1586465053.921,115.234,-564.453,-817.871,10.742,0.000
1586465053.925,-39.551,70.801,-709.473,132.812,0.000
1586465053.929,-158.691,-109.375,-810.059,-19.531,0.000
1586465053.933,7.812,-271.484,-820.801,-179.688,0.000
1586465053.937,191.895,192.871,-693.848,-58.105,0.000
1586465053.941,22.461,329.102,-707.031,125.000,0.000
1586465053.945,-190.918,-108.887,-822.266,11.230,0.000
1586465053.949,-104.980,-313.965,-856.934,-206.543,0.000
1586465053.953,79.102,107.910,-718.262,-166.504,0.000
1586465053.957,65.430,338.867,-692.871,76.172,0.000
1586465053.961,-132.324,-299.316,-894.043,66.406,0.000
1586465053.964,-122.070,-736.816,-920.410,-146.484,0.000
1586465053.968,94.238,-278.809,-800.293,-174.316,0.000
1586465053.972,116.699,218.262,-729.980,53.223,0.000
1586465053.976,-73.730,-56.641,-761.230,118.164,0.000
1586465053.980,-154.297,-536.621,-846.191,-95.215,0.000
1586465053.984,-3.906,-73.730,-762.695,-217.285,0.000
1586465053.988,131.836,478.516,-670.410,-26.855,0.000
1586465053.992,-6.348,60.547,-764.160,153.320,0.000
1586465053.996,-157.715,-355.957,-833.496,-0.488,0.000
1586465054.000,-57.617,38.086,-745.605,-229.980,0.000
1586465054.003,94.727,441.406,-681.641,-114.746,0.000
1586465054.007,27.344,44.922,-782.715,130.859,0.000
1586465054.011,-154.297,-387.207,-832.031,47.852,0.000
1586465054.015,-113.770,-139.648,-791.504,-168.457,0.000
1586465054.019,85.938,146.973,-752.930,-139.648,0.000
1586465054.023,84.961,-169.434,-779.297,97.656,0.000
1586465054.027,-133.301,-385.254,-801.270,95.215,0.000
1586465054.031,-159.180,-111.328,-796.875,-143.066,0.000
