timestamps,TP9,AF7,AF8,TP10,Right AUX
1587071688.757,64.941,747.070,7.812,-90.820,0.000
1587071688.761,66.406,264.648,12.207,-27.344,0.000
1587071688.765,240.234,461.914,54.199,316.895,0.000
1587071688.769,262.695,977.051,65.918,325.195,0.000
1587071688.773,106.445,857.910,24.414,17.090,0.000
1587071688.777,55.176,115.234,-2.441,-61.523,0.000
1587071688.780,187.500,-114.258,43.457,255.371,0.000
1587071688.784,269.043,688.477,88.379,399.902,0.000
1587071688.788,161.621,-936.035,50.293,108.887,0.000
1587071688.792,40.039,264.160,-3.418,-105.957,0.000
1587071688.796,136.230,54.688,31.250,121.094,0.000
1587071688.800,285.156,922.363,78.613,375.977,0.000
1587071688.804,218.750,-998.047,46.875,220.703,0.000
1587071688.808,42.480,415.039,9.277,-61.523,0.000
1587071688.812,94.727,319.824,37.598,56.152,0.000
1587071688.816,264.160,899.902,77.637,354.004,0.000
1587071688.820,261.230,950.684,41.016,287.109,0.000
1587071688.823,78.125,326.172,-15.137,-44.434,0.000
1587071688.827,22.461,-34.668,2.441,-43.945,0.000
1587071688.831,187.500,605.957,50.293,266.602,0.000
1587071688.835,267.090,-939.941,28.809,311.035,0.000
1587071688.839,137.207,189.941,-2.930,39.551,0.000
1587071688.843,3.418,-292.480,28.320,-101.562,0.000
1587071688.847,128.906,569.824,67.383,159.180,0.000
1587071688.851,282.715,-983.398,65.430,375.488,0.000
1587071688.855,173.340,636.719,28.320,141.602,0.000
1587071688.859,-10.742,375.488,22.949,-141.602,0.000
1587071688.862,71.777,591.797,43.945,49.805,0.000
1587071688.866,255.859,895.020,40.527,346.191,0.000
1587071688.870,217.285,710.938,0.977,202.637,0.000
1587071688.874,53.223,160.645,-4.883,-56.641,0.000
1587071688.878,65.918,89.355,23.438,39.551,0.000
1587071688.882,235.352,393.555,22.461,303.223,0.000
1587071688.886,263.672,628.418,13.184,274.414,0.000
1587071688.890,76.172,770.020,17.578,-47.363,0.000
1587071688.894,20.020,539.062,4.395,-52.246,0.000
1587071688.898,194.824,506.836,12.207,268.555,0.000
1587071688.902,283.203,804.199,22.461,339.844,0.000
1587071688.905,129.883,921.387,-3.906,41.992,0.000
1587071688.909,17.090,739.258,-10.742,-111.328,0.000
1587071688.913,159.180,276.367,7.324,194.336,0.000
1587071688.917,290.527,151.367,26.855,421.875,0.000
1587071688.921,187.988,693.848,40.039,158.203,0.000
1587071688.925,30.273,650.391,12.695,-104.980,0.000
1587071688.929,121.094,66.406,2.930,118.652,0.000
1587071688.933,291.504,396.484,41.504,407.715,0.000
1587071688.937,235.352,-965.332,17.578,262.695,0.000
1587071688.941,49.805,487.305,-45.410,-83.008,0.000
1587071688.945,39.062,373.535,-4.883,-0.488,0.000
1587071688.948,221.191,889.648,42.480,342.285,0.000
1587071688.952,270.508,-962.402,-3.906,321.777,0.000
1587071688.956,111.816,736.816,-58.594,-8.301,0.000
1587071688.960,45.898,367.188,-74.219,-92.285,0.000
1587071688.964,196.777,595.215,-50.293,198.242,0.000
1587071688.968,323.242,-978.027,-42.480,320.801,0.000
1587071688.972,230.469,550.293,-93.262,62.988,0.000
1587071688.976,65.430,-270.508,-93.750,-115.723,0.000
1587071688.980,143.066,457.520,-18.555,130.859,0.000
1587071688.984,328.125,-903.320,14.160,373.535,0.000
1587071688.987,267.090,715.332,-22.461,184.082,0.000
1587071688.991,83.008,400.391,-46.875,-97.168,0.000
1587071688.995,120.605,515.625,-4.395,58.594,0.000
1587071688.999,295.898,805.664,34.180,338.379,0.000
1587071689.003,281.738,937.012,23.926,242.188,0.000
1587071689.007,105.957,741.699,-8.301,-63.477,0.000
1587071689.011,100.098,400.879,-8.301,-11.230,0.000
1587071689.015,270.508,764.160,42.969,306.641,0.000
1587071689.019,317.871,681.641,40.039,350.098,0.000
1587071689.023,149.902,316.895,32.715,30.273,0.000
1587071689.027,48.340,860.840,60.547,-94.727,0.000
1587071689.030,201.172,979.492,58.105,219.238,0.000
1587071689.034,321.777,926.270,60.059,385.254,0.000
1587071689.038,222.168,952.637,49.805,132.812,0.000
1587071689.042,78.125,950.195,27.344,-86.914,0.000
1587071689.046,170.898,950.684,29.785,121.094,0.000
1587071689.050,333.008,956.543,57.617,373.535,0.000
1587071689.054,250.000,958.984,42.969,204.102,0.000
1587071689.058,76.172,566.895,16.113,-100.586,0.000
1587071689.062,115.723,277.832,39.551,44.922,0.000
1587071689.066,295.898,523.926,78.125,363.281,0.000
1587071689.070,296.875,926.270,96.191,268.066,0.000
1587071689.073,113.770,969.238,47.852,-63.965,0.000
1587071689.077,82.520,680.176,44.434,-40.039,0.000
1587071689.081,240.723,785.645,87.891,280.273,0.000
1587071689.085,286.621,-984.375,71.289,342.773,0.000
1587071689.089,135.742,946.777,8.301,43.945,0.000
1587071689.093,43.457,576.172,-15.625,-72.754,0.000
1587071689.097,172.852,681.641,27.832,207.031,0.000
1587071689.101,294.434,-990.234,41.992,380.859,0.000
1587071689.105,200.195,924.316,16.113,158.203,0.000
1587071689.109,72.754,-53.223,-9.277,-69.336,0.000
1587071689.112,138.184,-166.016,34.668,107.422,0.000
1587071689.116,272.461,958.984,76.660,342.773,0.000
1587071689.120,228.027,956.055,21.484,205.078,0.000
1587071689.124,52.246,604.004,-4.395,-85.938,0.000
1587071689.128,66.895,723.633,26.855,6.836,0.000
1587071689.132,248.535,990.723,50.781,326.172,0.000
1587071689.136,292.969,958.984,27.344,309.082,0.000
1587071689.140,116.699,803.223,-9.766,-9.277,0.000
1587071689.144,63.477,761.719,-0.488,-42.969,0.000
1587071689.148,239.258,940.430,36.621,266.602,0.000
1587071689.152,297.363,950.195,38.574,363.770,0.000
1587071689.155,160.156,556.152,6.348,92.285,0.000
1587071689.159,58.594,323.730,6.348,-63.965,0.000
1587071689.163,160.645,761.719,36.621,185.547,0.000
1587071689.167,283.203,883.301,21.973,390.625,0.000
1587071689.171,192.383,505.859,-19.043,169.434,0.000
1587071689.175,8.301,580.566,4.883,-106.934,0.000
1587071689.179,75.195,893.555,57.129,72.754,0.000
1587071689.183,293.457,785.645,49.805,373.047,0.000
1587071689.187,266.602,668.457,4.883,254.883,0.000
1587071689.191,48.828,847.168,-1.465,-79.590,0.000
1587071689.195,64.453,786.621,30.273,0.977,0.000
1587071689.198,259.766,860.352,67.871,342.773,0.000
1587071689.202,296.387,958.496,71.777,344.238,0.000
1587071689.206,131.836,902.832,44.434,3.906,0.000
1587071689.210,52.734,675.293,18.555,-81.543,0.000
1587071689.214,194.824,379.395,39.551,246.582,0.000
1587071689.218,293.457,671.875,64.453,380.859,0.000
1587071689.222,167.480,-966.309,41.016,110.352,0.000
1587071689.226,29.297,585.938,6.348,-87.402,0.000
1587071689.230,151.855,410.156,31.738,159.668,0.000
1587071689.234,312.500,856.445,78.613,408.691,0.000
1587071689.237,204.102,-945.312,40.039,188.965,0.000
1587071689.241,30.762,656.738,-21.973,-108.887,0.000
1587071689.245,96.191,235.840,-0.488,61.035,0.000
1587071689.249,264.160,701.660,53.711,355.957,0.000
1587071689.253,245.117,-942.383,42.969,248.535,0.000
1587071689.257,76.172,449.219,-3.418,-42.480,0.000
1587071689.261,58.105,-258.301,25.391,10.254,0.000
1587071689.265,228.027,536.621,116.699,322.754,0.000
1587071689.269,289.062,-896.973,78.613,348.633,0.000
1587071689.273,118.164,643.555,14.160,32.715,0.000
1587071689.277,45.410,546.387,32.715,-69.336,0.000
1587071689.280,197.266,918.457,63.477,229.004,0.000
1587071689.284,296.875,-989.258,66.895,398.438,0.000
1587071689.288,180.664,769.043,35.645,110.840,0.000
1587071689.292,37.598,186.035,3.418,-128.418,0.000
1587071689.296,116.211,340.332,36.133,98.633,0.000
1587071689.300,254.395,-974.609,59.082,345.215,0.000
1587071689.304,219.727,562.500,13.672,193.359,0.000
1587071689.308,54.199,109.863,17.578,-105.957,0.000
1587071689.312,68.359,619.629,50.293,21.973,0.000
1587071689.316,259.766,968.262,61.523,359.375,0.000
1587071689.320,239.746,592.773,53.711,265.625,0.000
1587071689.323,14.160,364.258,28.809,-97.168,0.000
1587071689.327,-25.879,618.164,20.996,-117.676,0.000
1587071689.331,140.625,884.277,47.363,198.242,0.000
1587071689.335,196.777,-997.070,51.270,265.625,0.000
1587071689.339,25.879,672.852,13.672,-55.176,0.000
1587071689.343,-98.145,121.582,5.371,-193.359,0.000
1587071689.347,37.109,148.926,41.016,75.684,0.000
1587071689.351,150.879,310.059,56.152,231.934,0.000
1587071689.355,14.648,657.227,50.781,-18.066,0.000
1587071689.359,-98.633,679.688,10.742,-225.098,0.000
1587071689.362,31.250,459.961,20.020,9.766,0.000
1587071689.366,189.941,719.727,61.035,278.320,0.000
1587071689.370,128.418,-981.445,56.641,132.324,0.000
1587071689.374,-33.203,708.496,10.742,-138.672,0.000
1587071689.378,15.137,310.547,16.602,-33.203,0.000
1587071689.382,190.430,719.238,59.082,270.996,0.000
1587071689.386,208.496,939.941,27.832,244.629,0.000
1587071689.390,36.133,512.695,-35.645,-66.895,0.000
1587071689.394,-30.273,-325.195,-39.551,-88.379,0.000
1587071689.398,115.723,-6.836,29.297,191.895,0.000
1587071689.402,187.500,-910.156,45.898,257.324,0.000
1587071689.405,64.453,684.082,-23.438,6.836,0.000
1587071689.409,-30.762,147.949,-32.227,-161.133,0.000
1587071689.413,81.055,612.305,32.227,97.656,0.000
1587071689.417,212.891,-940.430,60.059,314.453,0.000
1587071689.421,135.742,792.480,17.578,80.566,0.000
1587071689.425,-26.855,344.238,-5.371,-187.500,0.000
1587071689.429,35.156,555.176,37.109,-20.508,0.000
1587071689.433,216.309,-996.582,55.176,291.504,0.000
1587071689.437,190.430,800.781,16.113,191.895,0.000
1587071689.441,8.301,-108.887,-13.672,-121.582,0.000
1587071689.445,4.395,204.102,42.969,-66.895,0.000
1587071689.448,183.105,998.047,77.637,250.488,0.000
1587071689.452,247.559,884.766,58.594,273.926,0.000
1587071689.456,91.309,823.730,34.668,-55.664,0.000
1587071689.460,9.277,727.051,18.555,-121.582,0.000
1587071689.464,161.621,779.297,52.246,212.891,0.000
1587071689.468,255.859,954.590,72.754,332.031,0.000
1587071689.472,114.258,997.070,32.227,41.992,0.000
1587071689.476,-9.766,703.613,0.977,-134.766,0.000
1587071689.480,111.816,580.078,20.508,128.418,0.000
1587071689.484,265.625,645.020,46.387,388.672,0.000
1587071689.487,198.730,696.289,35.645,188.477,0.000
1587071689.491,26.367,863.281,10.254,-110.840,0.000
1587071689.495,87.402,707.031,6.348,57.129,0.000
1587071689.499,254.395,827.148,34.668,347.168,0.000
1587071689.503,220.215,990.723,45.898,253.418,0.000
1587071689.507,55.664,826.172,21.484,-78.613,0.000
1587071689.511,43.945,518.066,20.020,-53.711,0.000
1587071689.515,210.449,715.332,59.082,289.062,0.000
1587071689.519,257.812,-989.258,58.105,324.707,0.000
1587071689.523,111.328,796.387,24.414,-0.977,0.000
1587071689.527,27.832,170.410,25.391,-63.477,0.000
1587071689.530,155.762,105.469,50.293,224.121,0.000
1587071689.534,262.695,761.230,68.359,348.145,0.000
1587071689.538,148.926,-930.176,41.504,83.496,0.000
1587071689.542,24.414,306.152,-0.977,-117.188,0.000
1587071689.546,103.027,-36.133,37.109,127.441,0.000
1587071689.550,250.000,875.000,101.074,351.562,0.000
1587071689.554,212.402,-931.152,77.148,197.266,0.000
1587071689.558,35.645,438.477,21.484,-93.750,0.000
1587071689.562,64.453,330.078,45.410,22.461,0.000
1587071689.566,245.605,939.453,104.492,330.078,0.000
1587071689.570,250.977,-975.586,72.266,262.695,0.000
1587071689.573,67.383,361.816,11.719,-61.035,0.000
1587071689.577,20.020,-112.793,29.297,-78.125,0.000
1587071689.581,180.664,524.902,90.820,218.262,0.000
1587071689.585,258.301,-967.773,87.402,298.828,0.000
1587071689.589,132.324,129.883,26.367,30.273,0.000
1587071689.593,19.043,-377.441,62.012,-121.582,0.000
1587071689.597,130.371,465.332,135.742,153.320,0.000
1587071689.601,261.719,894.531,148.438,348.633,0.000
1587071689.605,163.574,622.559,124.512,102.051,0.000
1587071689.609,-1.953,242.676,122.070,-141.113,0.000
1587071689.612,91.797,484.863,158.691,72.266,0.000
1587071689.616,268.066,773.438,164.062,330.078,0.000
1587071689.620,195.801,520.020,127.441,181.641,0.000
1587071689.624,9.277,5.859,105.957,-104.980,0.000
1587071689.628,31.738,-193.359,143.555,-4.883,0.000
1587071689.632,225.098,81.543,175.781,325.684,0.000
1587071689.636,245.117,8.789,155.762,305.176,0.000
1587071689.640,54.199,-141.602,145.020,-41.504,0.000
1587071689.644,2.441,-73.242,151.855,-92.773,0.000
1587071689.648,161.621,242.188,182.129,224.121,0.000
1587071689.652,238.281,710.938,172.363,288.574,0.000
1587071689.655,95.703,600.098,120.605,-12.207,0.000
1587071689.659,-28.320,24.414,123.047,-145.996,0.000
1587071689.663,90.820,59.570,161.621,97.168,0.000
1587071689.667,236.816,390.625,179.688,289.062,0.000
1587071689.671,164.062,387.695,179.199,89.355,0.000
1587071689.675,14.648,83.496,173.340,-154.785,0.000
1587071689.679,75.195,-523.926,195.312,59.570,0.000
1587071689.683,232.910,-129.395,258.301,353.516,0.000
1587071689.687,186.523,660.645,253.418,203.613,0.000
1587071689.691,7.324,50.781,212.891,-105.469,0.000
1587071689.695,29.785,-347.656,243.164,-36.133,0.000
1587071689.698,214.355,164.551,282.715,267.090,0.000
1587071689.702,239.258,795.898,271.973,248.047,0.000
1587071689.706,99.609,341.309,212.402,-44.434,0.000
1587071689.710,26.367,-393.555,177.246,-108.398,0.000
1587071689.714,165.527,-113.281,216.797,173.828,0.000
1587071689.718,311.523,444.824,248.535,335.449,0.000
1587071689.722,190.430,-10.742,202.148,90.820,0.000
1587071689.726,16.602,-632.812,205.566,-121.582,0.000
1587071689.730,114.258,14.160,276.855,109.863,0.000
1587071689.734,270.020,848.145,302.246,359.375,0.000
1587071689.737,221.191,354.492,233.398,163.574,0.000
1587071689.741,38.086,-760.742,204.590,-133.789,0.000
1587071689.745,73.242,-274.414,282.227,3.418,0.000
1587071689.749,273.926,610.840,295.898,332.031,0.000
1587071689.753,247.070,412.109,239.258,250.977,0.000
1587071689.757,30.273,-318.848,202.148,-108.398,0.000
1587071689.761,37.598,-573.730,228.027,-68.359,0.000
1587071689.765,226.562,-40.527,269.531,281.250,0.000
1587071689.769,265.625,-115.723,231.934,309.570,0.000
1587071689.773,87.891,-629.883,200.684,-22.949,0.000
1587071689.777,-23.926,-235.840,219.238,-127.441,0.000
1587071689.780,145.996,67.383,219.238,187.988,0.000
1587071689.784,274.414,388.184,223.633,344.238,0.000
1587071689.788,158.691,251.953,191.895,80.078,0.000
1587071689.792,17.578,-376.465,170.898,-133.789,0.000
1587071689.796,118.164,-421.875,201.172,103.027,0.000
1587071689.800,262.207,131.836,230.469,359.863,0.000
1587071689.804,209.473,342.773,203.125,185.547,0.000
1587071689.808,50.781,-361.816,149.902,-81.543,0.000
1587071689.812,66.895,-907.227,157.227,21.973,0.000
1587071689.816,229.492,-609.375,196.289,309.082,0.000
1587071689.820,212.402,60.059,202.148,232.910,0.000
1587071689.823,39.551,88.867,158.203,-119.141,0.000
1587071689.827,37.598,-598.145,136.230,-105.957,0.000
1587071689.831,210.449,-798.340,190.918,245.117,0.000
1587071689.835,255.371,154.785,243.652,300.781,0.000
1587071689.839,120.605,268.555,197.754,6.348,0.000
1587071689.843,59.570,-556.641,168.945,-138.184,0.000
1587071689.847,166.504,-350.586,227.051,118.652,0.000
1587071689.851,253.418,408.203,253.906,317.871,0.000
1587071689.855,163.086,80.078,203.613,85.938,0.000
1587071689.859,20.996,-839.844,156.250,-141.113,0.000
1587071689.862,95.703,-700.195,199.707,59.570,0.000
1587071689.866,243.652,246.094,221.680,311.035,0.000
1587071689.870,182.617,176.270,147.461,176.758,0.000
1587071689.874,18.066,-534.180,125.977,-118.164,0.000
1587071689.878,57.617,-525.879,177.246,-38.086,0.000
1587071689.882,236.328,245.117,217.773,288.086,0.000
1587071689.886,255.859,406.738,190.918,295.410,0.000
1587071689.890,83.008,-364.258,163.086,-34.180,0.000
1587071689.894,27.344,-561.035,195.801,-97.168,0.000
1587071689.898,184.570,-197.266,211.914,216.309,0.000
1587071689.902,257.324,-47.363,198.730,302.246,0.000
1587071689.905,130.371,-431.152,156.250,0.977,0.000
1587071689.909,4.883,-794.922,133.301,-149.414,0.000
1587071689.913,113.281,-370.117,159.668,108.887,0.000
1587071689.917,282.715,-223.633,148.438,326.172,0.000
1587071689.921,166.504,-409.668,141.113,124.512,0.000
1587071689.925,-5.371,-413.086,141.602,-166.992,0.000
1587071689.929,68.359,-451.660,157.715,14.160,0.000
1587071689.933,245.605,-571.777,166.016,340.820,0.000
1587071689.937,225.098,-590.820,167.969,235.840,0.000
1587071689.941,49.316,-360.352,181.152,-96.191,0.000
1587071689.945,73.730,-445.312,164.551,-40.039,0.000
1587071689.948,280.273,-756.836,157.715,325.195,0.000
1587071689.952,285.645,-794.434,181.152,293.457,0.000
1587071689.956,58.594,-240.234,192.383,-91.797,0.000
1587071689.960,1.953,-299.316,174.805,-125.488,0.000
1587071689.964,162.109,-419.922,186.035,190.918,0.000
1587071689.968,256.348,153.809,194.336,308.105,0.000
1587071689.972,132.324,364.258,168.457,42.480,0.000
1587071689.976,13.184,-336.914,144.531,-129.883,0.000
1587071689.980,119.141,-483.887,180.664,114.746,0.000
1587071689.984,262.695,285.156,209.473,329.590,0.000
1587071689.987,205.566,170.410,145.996,148.438,0.000
1587071689.991,26.367,-711.914,96.191,-124.023,0.000
1587071689.995,69.824,-872.559,125.977,24.414,0.000
1587071689.999,250.488,-381.348,156.250,336.426,0.000
1587071690.003,236.328,-163.086,127.930,217.285,0.000
1587071690.007,70.801,-696.777,93.750,-98.145,0.000
1587071690.011,55.176,-812.988,117.676,-54.199,0.000
1587071690.015,206.055,-10.254,160.645,265.625,0.000
1587071690.019,248.047,528.809,143.555,311.035,0.000
1587071690.023,116.211,-248.047,62.012,45.410,0.000
1587071690.027,39.551,-912.109,54.688,-28.320,0.000
1587071690.030,169.922,-115.234,129.395,211.426,0.000
1587071690.034,264.648,497.559,128.906,345.215,0.000
1587071690.038,136.719,62.012,87.891,84.473,0.000
1587071690.042,-1.465,-767.578,64.453,-137.207,0.000
1587071690.046,92.773,-837.891,97.168,83.984,0.000
1587071690.050,255.859,11.230,147.461,354.980,0.000
1587071690.054,218.750,-213.867,107.422,219.238,0.000
1587071690.058,21.973,-926.758,99.121,-102.051,0.000
1587071690.062,42.480,-380.859,144.043,-2.441,0.000
1587071690.066,250.488,94.238,144.043,339.844,0.000
1587071690.070,251.465,-5.371,108.887,269.531,0.000
1587071690.073,51.270,-308.105,84.961,-66.895,0.000
1587071690.077,12.695,-331.055,103.516,-71.289,0.000
1587071690.081,193.848,-103.027,120.117,260.742,0.000
1587071690.085,257.324,44.434,121.582,324.219,0.000
1587071690.089,100.098,-242.676,110.840,16.602,0.000
1587071690.093,8.301,-708.496,107.422,-104.980,0.000
1587071690.097,162.109,-722.656,124.512,173.340,0.000
1587071690.101,279.297,-146.973,136.719,340.332,0.000
1587071690.105,165.527,57.129,103.027,74.219,0.000
1587071690.109,31.738,-575.195,85.938,-145.508,0.000
1587071690.112,101.074,-848.633,108.887,76.172,0.000
1587071690.116,259.277,-517.090,130.371,352.051,0.000
1587071690.120,197.754,176.758,133.301,205.566,0.000
1587071690.124,7.324,-82.520,83.008,-122.559,0.000
1587071690.128,38.086,-496.094,104.004,-27.832,0.000
1587071690.132,217.285,-19.043,159.668,299.805,0.000
1587071690.136,243.652,161.133,139.648,258.789,0.000
1587071690.140,59.082,-383.789,91.309,-84.473,0.000
1587071690.144,23.926,-942.871,90.820,-80.078,0.000
1587071690.148,202.637,-651.367,155.762,271.484,0.000
1587071690.152,267.090,329.590,176.758,321.777,0.000
1587071690.155,119.141,125.000,108.398,28.809,0.000
1587071690.159,-4.883,-669.434,81.543,-135.742,0.000
1587071690.163,125.488,-582.031,123.535,115.234,0.000
1587071690.167,276.367,130.371,151.367,324.707,0.000
1587071690.171,189.453,37.598,100.586,118.652,0.000
1587071690.175,0.488,-680.664,56.641,-159.668,0.000
1587071690.179,66.895,-557.129,96.191,10.742,0.000
1587071690.183,275.391,-145.508,133.301,329.102,0.000
1587071690.187,246.094,-274.902,113.281,216.309,0.000
1587071690.191,46.387,-855.469,95.215,-113.770,0.000
1587071690.195,20.996,-671.387,126.465,-77.637,0.000
1587071690.198,194.824,104.492,153.809,235.840,0.000
1587071690.202,250.488,-6.836,112.305,254.883,0.000
1587071690.206,92.773,-801.758,72.266,-35.156,0.000
1587071690.210,0.977,-719.727,91.797,-123.047,0.000
1587071690.214,164.062,-189.941,105.957,197.754,0.000
1587071690.218,277.832,21.973,105.469,347.656,0.000
1587071690.222,125.977,-291.504,71.777,48.340,0.000
1587071690.226,-4.883,-658.691,60.059,-168.945,0.000
1587071690.230,105.469,-498.047,87.891,88.867,0.000
1587071690.234,255.371,-510.742,95.215,363.281,0.000
1587071690.237,171.875,-588.867,80.078,148.438,0.000
1587071690.241,-15.137,-326.172,72.754,-174.805,0.000
1587071690.245,62.012,-354.980,62.988,-14.648,0.000
1587071690.249,252.930,-17.578,89.844,315.918,0.000
1587071690.253,236.328,322.266,111.816,230.469,0.000
1587071690.257,49.316,-39.062,76.660,-82.520,0.000
1587071690.261,33.691,-517.578,68.359,-48.340,0.000
1587071690.265,217.773,-211.426,97.656,253.418,0.000
1587071690.269,269.531,431.152,96.191,299.805,0.000
1587071690.273,131.836,182.617,56.152,-8.301,0.000
1587071690.277,57.617,-708.496,62.988,-103.516,0.000
1587071690.280,195.312,-993.652,120.605,224.609,0.000
1587071690.284,299.805,-368.652,159.180,355.469,0.000
1587071690.288,146.484,-35.645,114.258,65.918,0.000
1587071690.292,0.000,-624.023,78.613,-136.230,0.000
1587071690.296,108.887,-554.688,109.863,98.145,0.000
1587071690.300,243.652,363.770,116.699,333.008,0.000
1587071690.304,177.734,589.355,59.570,133.789,0.000
1587071690.308,23.438,-272.461,-0.977,-167.969,0.000
1587071690.312,55.664,-575.195,48.340,-9.277,0.000
1587071690.316,273.438,182.617,111.328,357.910,0.000
1587071690.320,312.012,312.012,92.285,297.363,0.000
1587071690.323,108.398,-607.422,69.336,-29.785,0.000
1587071690.327,43.945,-896.484,119.629,-60.547,0.000
1587071690.331,210.449,-8.789,166.992,247.070,0.000
1587071690.335,290.039,404.785,137.207,332.031,0.000
1587071690.339,136.719,-470.703,69.336,32.715,0.000
1587071690.343,0.488,-878.906,62.012,-116.699,0.000
1587071690.347,133.301,-77.148,115.723,157.715,0.000
1587071690.351,290.039,360.840,120.605,352.051,0.000
1587071690.355,192.871,-98.633,74.707,100.586,0.000
1587071690.359,48.340,-638.184,44.922,-159.668,0.000
1587071690.362,125.000,-362.793,73.730,52.734,0.000
1587071690.366,266.602,158.203,83.496,350.098,0.000
1587071690.370,218.262,-56.152,44.434,197.754,0.000
1587071690.374,39.062,-756.348,14.160,-121.094,0.000
1587071690.378,44.922,-812.988,25.879,-20.996,0.000
1587071690.382,239.258,-315.918,52.246,323.242,0.000
1587071690.386,285.645,-602.051,53.223,323.242,0.000
1587071690.390,99.121,-546.875,88.867,-4.883,0.000
1587071690.394,58.594,-266.113,118.164,-33.203,0.000
1587071690.398,257.324,-249.512,147.461,293.945,0.000
1587071690.402,328.613,291.992,162.598,361.816,0.000
1587071690.405,166.992,452.637,117.676,54.199,0.000
1587071690.409,66.406,-111.328,84.473,-100.098,0.000
1587071690.413,190.430,-296.875,99.609,178.711,0.000
1587071690.417,304.199,15.625,101.562,408.691,0.000
1587071690.421,190.430,57.617,73.730,168.457,0.000
1587071690.425,37.598,-177.734,52.246,-117.676,0.000
1587071690.429,127.930,-776.367,57.617,72.266,0.000
1587071690.433,295.898,-393.555,131.348,359.375,0.000
1587071690.437,257.324,583.008,131.348,219.238,0.000
1587071690.441,89.355,-62.012,42.480,-88.867,0.000
1587071690.445,91.797,-650.879,74.707,13.184,0.000
1587071690.448,259.766,84.961,156.738,343.750,0.000
1587071690.452,328.125,618.164,125.488,350.586,0.000
1587071690.456,176.758,-149.902,62.500,55.176,0.000
1587071690.460,55.664,-769.531,72.754,-14.160,0.000
1587071690.464,211.426,-331.055,116.699,277.344,0.000
1587071690.468,337.891,94.238,104.004,386.719,0.000
1587071690.472,188.965,-359.863,62.988,121.582,0.000
1587071690.476,54.688,-843.262,72.754,-54.688,0.000
1587071690.480,174.805,-291.504,136.719,168.457,0.000
1587071690.484,342.285,602.539,177.734,424.805,0.000
1587071690.487,277.832,237.305,105.469,275.391,0.000
1587071690.491,102.051,-791.992,49.316,-42.480,0.000
1587071690.495,123.047,-345.703,100.098,80.566,0.000
1587071690.499,298.828,387.695,115.723,384.277,0.000
1587071690.503,305.176,363.281,73.242,273.926,0.000
1587071690.507,106.445,-162.109,9.277,-38.086,0.000
1587071690.511,83.008,-601.074,16.602,0.000,0.000
1587071690.515,271.973,-212.891,81.543,301.270,0.000
1587071690.519,331.543,-257.812,80.078,354.492,0.000
1587071690.523,170.410,-663.574,75.684,58.594,0.000
1587071690.527,71.289,-279.785,100.586,-81.055,0.000
1587071690.530,225.586,-180.176,72.754,222.656,0.000
1587071690.534,343.750,95.703,51.758,392.578,0.000
1587071690.538,231.445,200.684,47.852,131.836,0.000
1587071690.542,81.055,-225.098,56.152,-59.570,0.000
1587071690.546,171.875,-272.461,83.984,170.410,0.000
1587071690.550,346.680,134.277,90.332,432.129,0.000
1587071690.554,279.297,301.758,70.801,254.395,0.000
1587071690.558,96.191,-375.000,32.715,-48.340,0.000
1587071690.562,153.320,-887.207,40.527,94.238,0.000
1587071690.566,350.586,-681.152,103.516,406.250,0.000
1587071690.570,302.246,84.473,107.910,299.316,0.000
1587071690.573,103.516,-150.391,27.832,-31.738,0.000
1587071690.577,97.656,-868.164,46.875,3.906,0.000
1587071690.581,272.461,-248.047,120.117,330.566,0.000
1587071690.585,351.562,555.664,126.953,397.949,0.000
1587071690.589,214.355,264.648,82.520,137.207,0.000
1587071690.593,105.469,-572.266,48.340,-9.277,0.000
1587071690.597,220.215,-253.906,96.191,212.402,0.000
1587071690.601,336.914,665.039,121.094,396.973,0.000
1587071690.605,240.723,309.082,67.871,152.344,0.000
1587071690.609,95.703,-750.488,14.160,-52.734,0.000
1587071690.612,189.941,-711.914,61.035,152.344,0.000
1587071690.616,352.539,380.859,141.113,404.297,0.000
1587071690.620,292.969,500.000,111.328,285.156,0.000
1587071690.624,139.648,-330.078,69.824,-21.973,0.000
1587071690.628,159.668,-481.934,96.191,74.707,0.000
1587071690.632,316.406,61.523,124.512,388.184,0.000
1587071690.636,339.355,313.477,106.445,334.961,0.000
1587071690.640,165.039,-212.891,84.961,26.855,0.000
1587071690.644,115.234,-491.211,108.887,5.371,0.000
1587071690.648,270.996,12.207,134.277,305.176,0.000
1587071690.652,351.074,213.379,103.516,399.902,0.000
1587071690.655,220.703,-599.121,65.918,126.465,0.000
1587071690.659,99.121,-916.016,107.910,-55.664,0.000
1587071690.663,223.145,-86.914,155.762,194.824,0.000
1587071690.667,374.023,340.332,129.395,425.781,0.000
1587071690.671,283.691,87.402,90.820,211.426,0.000
1587071690.675,125.000,-159.180,88.867,-58.105,0.000
1587071690.679,198.242,-180.664,110.840,125.977,0.000
1587071690.683,380.371,93.262,149.414,422.852,0.000
1587071690.687,346.680,273.926,131.348,292.480,0.000
1587071690.691,160.156,-241.211,73.242,-44.922,0.000
1587071690.695,154.297,-435.059,95.215,40.039,0.000
1587071690.698,315.918,-160.645,132.812,383.301,0.000
1587071690.702,335.938,52.734,135.254,363.281,0.000
1587071690.706,163.086,-64.453,107.910,48.828,0.000
1587071690.710,111.328,-406.250,96.191,-21.484,0.000
1587071690.714,279.785,-527.832,112.793,287.598,0.000
1587071690.718,372.070,-48.828,139.648,406.738,0.000
1587071690.722,218.262,337.891,119.629,97.656,0.000
1587071690.726,67.871,-392.090,67.871,-106.445,0.000
1587071690.730,179.199,-479.004,113.281,159.668,0.000
1587071690.734,322.266,376.465,165.527,412.109,0.000
1587071690.737,234.375,568.848,119.629,187.988,0.000
1587071690.741,65.430,-274.902,33.203,-99.121,0.000
1587071690.745,127.441,-774.414,30.273,53.223,0.000
1587071690.749,306.152,-150.391,101.562,345.703,0.000
1587071690.753,267.578,133.789,104.492,251.465,0.000
1587071690.757,82.520,-545.898,48.828,-40.527,0.000
1587071690.761,76.660,-922.363,69.824,-10.742,0.000
1587071690.765,235.352,-133.301,150.391,289.551,0.000
1587071690.769,297.852,639.648,118.164,298.828,0.000
1587071690.773,131.348,37.598,48.828,-20.020,0.000
1587071690.777,44.434,-473.633,64.453,-87.891,0.000
1587071690.780,211.914,103.027,97.168,216.797,0.000
1587071690.784,311.523,533.691,76.660,358.398,0.000
1587071690.788,182.617,103.516,11.719,62.988,0.000
1587071690.792,48.828,-667.480,-6.348,-123.535,0.000
1587071690.796,137.695,-432.617,62.500,122.559,0.000
1587071690.800,295.898,592.285,107.910,347.168,0.000
1587071690.804,251.465,27.832,60.547,189.941,0.000
1587071690.808,39.062,-867.188,73.730,-126.465,0.000
1587071690.812,68.359,-129.395,138.184,-9.766,0.000
1587071690.816,272.461,406.250,139.160,332.031,0.000
1587071690.820,268.555,479.004,125.488,267.578,0.000
1587071690.823,77.148,148.926,108.887,-52.734,0.000
1587071690.827,37.109,-35.156,116.699,-55.664,0.000
1587071690.831,205.078,244.141,110.840,262.695,0.000
1587071690.835,258.301,361.328,84.473,329.590,0.000
1587071690.839,98.633,59.570,70.801,15.137,0.000
1587071690.843,8.789,-430.176,73.242,-117.188,0.000
1587071690.847,174.316,-337.891,113.770,196.289,0.000
1587071690.851,304.688,255.859,134.766,382.324,0.000
1587071690.855,180.664,517.578,92.285,110.352,0.000
1587071690.859,4.883,111.328,34.180,-143.555,0.000
1587071690.862,80.078,-385.254,18.066,61.035,0.000
1587071690.866,253.906,-374.512,48.828,345.703,0.000
1587071690.870,193.359,361.328,60.547,170.898,0.000
1587071690.874,4.395,187.500,-0.977,-135.742,0.000
1587071690.878,51.758,-347.168,20.508,4.883,0.000
1587071690.882,237.793,123.047,75.684,317.871,0.000
1587071690.886,227.051,366.699,36.621,257.324,0.000
1587071690.890,51.270,-212.402,-29.785,-50.781,0.000
1587071690.894,23.926,-875.488,-63.477,-45.410,0.000
1587071690.898,162.109,-490.723,-9.277,264.160,0.000
1587071690.902,222.168,607.422,22.461,332.031,0.000
1587071690.905,115.723,355.957,-35.156,42.480,0.000
1587071690.909,-8.789,-434.570,-59.570,-141.602,0.000
1587071690.913,83.984,-168.457,-22.949,110.352,0.000
1587071690.917,232.910,704.102,15.137,326.172,0.000
1587071690.921,147.461,556.641,-19.531,106.445,0.000
1587071690.925,-33.203,-204.590,-34.668,-171.387,0.000
1587071690.929,25.391,-97.656,26.367,6.836,0.000
1587071690.933,211.426,388.672,61.035,309.570,0.000
1587071690.937,166.992,250.977,11.719,171.387,0.000
1587071690.941,-26.855,-705.566,-23.438,-150.879,0.000
1587071690.945,-50.781,-511.719,57.129,-102.539,0.000
1587071690.948,141.602,523.926,86.426,196.777,0.000
1587071690.952,201.172,496.094,41.992,208.984,0.000
1587071690.956,20.020,-46.387,16.113,-95.703,0.000
1587071690.960,-62.012,-167.480,36.621,-165.527,0.000
1587071690.964,111.816,228.027,83.008,153.320,0.000
1587071690.968,197.754,392.090,76.660,269.043,0.000
1587071690.972,37.598,170.898,44.922,-37.598,0.000
1587071690.976,-78.125,-149.414,34.180,-191.406,0.000
1587071690.980,37.598,-177.734,59.082,81.543,0.000
1587071690.984,181.152,-248.535,56.152,315.918,0.000
1587071690.987,92.285,-358.398,34.180,116.699,0.000
1587071690.991,-86.914,-81.543,25.879,-208.496,0.000
1587071690.995,-31.250,-166.016,28.320,-63.477,0.000
1587071690.999,131.348,52.246,68.359,269.043,0.000
1587071691.003,112.793,469.727,87.402,159.180,0.000
1587071691.007,-55.664,199.219,80.566,-195.312,0.000
1587071691.011,-57.617,-315.430,61.523,-134.277,0.000
1587071691.015,125.488,-46.387,60.547,211.914,0.000
1587071691.019,152.832,503.906,106.445,220.215,0.000
1587071691.023,-17.578,229.004,93.750,-99.609,0.000
1587071691.027,-82.031,-628.906,35.645,-171.387,0.000
1587071691.030,34.180,-753.418,59.570,104.980,0.000
1587071691.034,122.559,83.008,106.934,231.934,0.000
1587071691.038,-1.953,223.145,79.590,-29.297,0.000
1587071691.042,-135.254,-680.664,55.664,-232.422,0.000
1587071691.046,0.488,-724.609,97.656,-13.184,0.000
1587071691.050,148.926,268.066,144.531,190.918,0.000
1587071691.054,45.898,476.074,107.422,35.156,0.000
1587071691.058,-125.977,-412.598,84.473,-216.797,0.000
1587071691.062,-83.008,-546.387,90.820,-83.008,0.000
1587071691.066,86.914,433.594,-12.695,237.305,0.000
1587071691.070,102.539,680.664,-207.520,181.152,0.000
1587071691.073,-63.477,-404.297,-390.137,-113.281,0.000
1587071691.077,-117.676,-862.793,-458.984,-132.324,0.000
1587071691.081,25.391,7.324,-500.977,153.320,0.000
1587071691.085,83.496,450.195,-582.031,203.613,0.000
1587071691.089,-65.918,-269.043,-632.812,-134.766,0.000
1587071691.093,-169.434,-810.059,-635.742,-280.762,0.000
1587071691.097,-33.691,-616.699,-620.605,6.836,0.000
1587071691.101,91.309,-436.035,-609.863,198.730,0.000
1587071691.105,-12.695,-651.367,-646.484,-41.992,0.000
1587071691.109,-177.246,-993.652,-673.340,-302.246,0.000
1587071691.112,-127.930,-693.359,-639.648,-138.672,0.000
1587071691.116,35.645,-297.852,-631.348,158.203,0.000
1587071691.120,-6.348,-622.559,-691.406,37.598,0.000
1587071691.124,-200.684,-1000.000,-708.496,-301.270,0.000
1587071691.128,-177.734,-894.531,-626.953,-214.844,0.000
1587071691.132,6.348,-678.711,-591.309,73.730,0.000
1587071691.136,-14.648,-674.805,-630.859,10.254,0.000
1587071691.140,-237.793,-665.527,-632.324,-318.848,0.000
1587071691.144,-295.410,-853.027,-604.980,-370.605,0.000
1587071691.148,-145.508,-811.035,-540.527,-91.309,0.000
1587071691.152,-81.543,-407.227,-482.422,-30.273,0.000
1587071691.155,-230.957,-562.988,-472.168,-351.074,0.000
1587071691.159,-378.418,-1000.000,-410.645,-507.812,0.000
1587071691.163,-268.555,-991.699,-299.805,-241.211,0.000
1587071691.167,-110.352,-672.363,-286.133,-50.781,0.000
1587071691.171,-212.402,-560.059,-312.988,-270.508,0.000
1587071691.175,-376.953,-871.582,-306.641,-514.648,0.000
1587071691.179,-292.480,-1000.000,-276.367,-319.336,0.000
1587071691.183,-104.492,-653.809,-221.680,-33.203,0.000
1587071691.187,-162.109,-163.574,-201.660,-167.480,0.000
1587071691.191,-360.840,-693.359,-226.074,-476.562,0.000
1587071691.195,-328.125,-1000.000,-198.242,-389.160,0.000
1587071691.198,-136.230,-570.312,-137.207,-54.688,0.000
1587071691.202,-88.867,-352.051,-135.254,-53.711,0.000
1587071691.206,-253.906,-792.480,-180.176,-365.234,0.000
1587071691.210,-282.227,-1000.000,-187.500,-382.324,0.000
1587071691.214,-84.961,-985.840,-153.809,-36.621,0.000
1587071691.218,-16.113,-965.820,-103.516,42.969,0.000
1587071691.222,-127.930,-969.727,-76.660,-203.613,0.000
1587071691.226,-238.770,-1000.000,-163.574,-326.660,0.000
1587071691.230,-140.625,-666.016,-161.621,-66.406,0.000
1587071691.234,47.852,55.176,-201.172,169.922,0.000
1587071691.237,-17.578,-53.223,-458.008,-6.836,0.000
1587071691.241,-173.340,-626.465,-653.320,-254.395,0.000
1587071691.245,-98.145,-407.715,-705.078,-65.430,0.000
1587071691.249,86.914,169.434,-746.582,240.723,0.000
1587071691.253,73.730,232.910,-768.066,163.574,0.000
1587071691.257,-110.840,-93.262,-777.344,-143.555,0.000
1587071691.261,-111.328,-406.738,-746.582,-114.746,0.000
1587071691.265,69.336,107.910,-691.895,204.102,0.000
1587071691.269,117.188,265.137,-732.910,240.234,0.000
1587071691.273,-54.688,-404.785,-748.047,-62.012,0.000
1587071691.277,-153.320,-106.445,-679.199,-160.156,0.000
1587071691.280,0.000,577.637,-597.656,144.531,0.000
1587071691.284,109.863,930.664,-507.812,307.617,0.000
1587071691.288,-23.926,806.152,-449.707,23.926,0.000
1587071691.292,-158.203,438.965,-457.520,-201.660,0.000
1587071691.296,-33.691,362.305,-429.688,40.039,0.000
1587071691.300,128.906,706.055,-369.141,288.574,0.000
1587071691.304,39.062,948.242,-366.699,112.793,0.000
1587071691.308,-127.930,207.031,-404.785,-177.246,0.000
1587071691.312,-84.473,-405.762,-349.121,-54.199,0.000
1587071691.316,57.129,-17.090,-229.980,250.000,0.000
1587071691.320,41.016,806.152,-223.145,166.504,0.000
1587071691.323,-120.605,825.684,-343.750,-159.180,0.000
1587071691.327,-149.414,106.934,-340.820,-142.578,0.000
1587071691.331,20.508,263.672,-252.441,160.156,0.000
1587071691.335,67.871,907.715,-221.191,189.941,0.000
1587071691.339,-106.934,857.910,-254.395,-122.070,0.000
1587071691.343,-189.453,235.840,-243.652,-244.141,0.000
1587071691.347,-60.547,473.633,-142.578,54.199,0.000
1587071691.351,55.664,986.816,-110.840,226.074,0.000
1587071691.355,-44.434,701.172,-145.996,-30.762,0.000
1587071691.359,-183.105,-307.129,-157.715,-256.836,0.000
1587071691.362,-130.371,-410.156,-67.871,-74.707,0.000
1587071691.366,7.324,829.590,20.508,165.527,0.000
1587071691.370,-26.855,989.258,-24.414,41.504,0.000
1587071691.374,-202.148,416.992,-41.016,-244.141,0.000
1587071691.378,-187.988,442.383,33.203,-143.066,0.000
1587071691.382,3.906,966.309,108.398,181.152,0.000
1587071691.386,26.855,925.781,92.773,172.852,0.000
1587071691.390,-110.840,204.590,21.973,-149.414,0.000
1587071691.394,-170.410,23.438,79.590,-212.402,0.000
1587071691.398,-62.500,708.496,217.773,94.238,0.000
1587071691.402,30.762,857.422,227.051,212.891,0.000
1587071691.405,-127.441,-136.719,201.172,-62.500,0.000
1587071691.409,-258.301,-500.000,287.598,-259.277,0.000
1587071691.413,-113.770,376.953,390.137,-13.184,0.000
1587071691.417,24.902,855.957,410.645,218.262,0.000
1587071691.421,-93.750,707.031,393.066,-18.066,0.000
1587071691.425,-274.414,391.602,407.227,-299.805,0.000
1587071691.429,-187.988,407.715,458.496,-97.168,0.000
1587071691.433,26.855,684.570,523.438,213.379,0.000
1587071691.437,-42.969,760.742,527.344,60.547,0.000
1587071691.441,-251.465,493.164,501.465,-259.766,0.000
1587071691.445,-228.027,232.422,479.492,-174.805,0.000
1587071691.448,-57.129,354.492,475.098,141.602,0.000
1587071691.452,-29.297,552.734,464.355,141.602,0.000
1587071691.456,-194.824,361.328,432.129,-187.012,0.000
1587071691.460,-279.297,296.387,433.594,-255.371,0.000
1587071691.464,-120.117,91.797,437.500,60.059,0.000
1587071691.468,-32.715,404.785,497.559,144.043,0.000
1587071691.472,-174.316,933.105,487.793,-143.555,0.000
1587071691.476,-274.902,333.496,425.781,-302.734,0.000
1587071691.480,-148.926,341.309,484.863,-47.852,0.000
1587071691.484,-11.230,931.641,530.273,145.508,0.000
1587071691.487,-107.422,964.844,465.820,-81.055,0.000
1587071691.491,-265.625,344.727,419.922,-330.078,0.000
1587071691.495,-205.566,-62.500,442.871,-182.617,0.000
1587071691.499,-77.637,452.148,489.258,97.168,0.000
1587071691.503,-129.395,757.324,469.238,0.000,0.000
1587071691.507,-268.066,134.766,413.086,-297.852,0.000
1587071691.511,-252.930,-442.383,458.496,-238.281,0.000
1587071691.515,-102.539,455.078,594.238,53.223,0.000
1587071691.519,-46.875,-874.512,586.914,72.266,0.000
1587071691.523,-211.426,513.672,489.258,-213.379,0.000
1587071691.527,-300.781,99.121,492.676,-322.754,0.000
1587071691.530,-161.621,626.953,558.594,-79.102,0.000
1587071691.534,-33.691,-970.703,554.199,29.297,0.000
1587071691.538,-152.832,642.578,470.215,-253.418,0.000
1587071691.542,-324.707,-94.727,426.270,-476.562,0.000
1587071691.546,-224.609,61.523,480.469,-266.602,0.000
1587071691.550,-56.152,845.215,542.969,-39.062,0.000
1587071691.554,-126.465,750.000,515.137,-200.684,0.000
1587071691.558,-306.152,359.375,505.859,-500.977,0.000
1587071691.562,-274.414,420.898,562.500,-373.535,0.000
1587071691.566,-98.145,797.852,618.652,-57.617,0.000
1587071691.570,-87.891,437.988,610.352,-124.512,0.000
1587071691.573,-277.344,-18.555,629.395,-447.754,0.000
1587071691.577,-312.012,436.035,698.730,-457.031,0.000
1587071691.581,-125.488,709.473,759.277,-129.883,0.000
1587071691.585,-60.547,729.004,775.391,-43.945,0.000
1587071691.589,-216.309,393.066,776.855,-336.426,0.000
1587071691.593,-288.574,15.625,799.316,-444.336,0.000
1587071691.597,-145.996,26.855,810.547,-160.645,0.000
1587071691.601,-51.758,397.461,814.453,9.277,0.000
1587071691.605,-182.617,825.684,791.016,-215.820,0.000
1587071691.609,-334.961,572.754,746.094,-442.871,0.000
1587071691.612,-232.422,94.238,710.938,-219.238,0.000
1587071691.616,-71.777,302.734,712.891,41.504,0.000
1587071691.620,-167.480,937.012,688.965,-129.395,0.000
1587071691.624,-324.707,303.223,580.566,-423.340,0.000
1587071691.628,-299.805,-75.684,589.844,-320.801,0.000
1587071691.632,-140.625,688.477,653.809,3.906,0.000
1587071691.636,-125.488,974.121,615.723,6.836,0.000
1587071691.640,-288.086,297.363,550.293,-270.996,0.000
1587071691.644,-326.172,-287.598,593.262,-323.730,0.000
1587071691.648,-179.199,349.121,694.336,-38.574,0.000
1587071691.652,-99.609,-957.520,673.340,55.176,0.000
1587071691.655,-235.840,787.598,585.449,-215.820,0.000
1587071691.659,-333.496,-400.391,552.734,-340.820,0.000
1587071691.663,-228.027,-273.438,643.555,-101.074,0.000
1587071691.667,-113.770,-983.398,677.734,63.965,0.000
1587071691.671,-204.590,749.023,579.590,-140.137,0.000
1587071691.675,-350.586,64.941,540.527,-380.859,0.000
1587071691.679,-285.645,156.250,572.754,-186.523,0.000
1587071691.683,-146.973,571.777,594.727,101.074,0.000
1587071691.687,-164.551,562.988,559.570,-9.277,0.000
1587071691.691,-320.801,-500.977,506.348,-298.340,0.000
1587071691.695,-350.098,-461.426,600.586,-253.418,0.000
1587071691.698,-175.293,769.531,664.551,66.406,0.000
1587071691.702,-114.258,841.309,581.055,74.219,0.000
1587071691.706,-285.645,403.809,521.973,-213.379,0.000
1587071691.710,-373.535,232.910,525.879,-248.535,0.000
1587071691.714,-191.406,483.398,545.898,56.641,0.000
1587071691.718,-59.570,664.551,552.246,180.176,0.000
1587071691.722,-232.422,525.391,541.992,-80.566,0.000
1587071691.726,-383.789,234.375,537.109,-246.582,0.000
1587071691.730,-240.234,169.434,587.402,11.230,0.000
1587071691.734,-76.172,80.078,614.746,233.398,0.000
1587071691.737,-175.781,-87.891,598.145,22.949,0.000
1587071691.741,-371.582,-34.180,562.012,-270.996,0.000
1587071691.745,-325.195,83.496,566.895,-92.285,0.000
1587071691.749,-157.227,564.453,640.625,218.750,0.000
1587071691.753,-177.246,841.797,626.465,104.004,0.000
1587071691.757,-349.121,505.859,560.059,-206.055,0.000
1587071691.761,-349.121,110.352,577.148,-153.320,0.000
1587071691.765,-177.246,386.230,671.387,175.781,0.000
1587071691.769,-121.582,825.684,710.449,182.617,0.000
1587071691.773,-308.594,554.199,614.258,-135.742,0.000
1587071691.777,-393.555,-219.727,546.875,-178.223,0.000
1587071691.780,-223.145,-557.617,602.539,125.000,0.000
1587071691.784,-133.301,159.180,674.805,237.305,0.000
1587071691.788,-252.441,656.250,644.043,-17.090,0.000
1587071691.792,-354.492,6.348,565.430,-192.383,0.000
1587071691.796,-266.602,-290.039,576.172,23.926,0.000
1587071691.800,-149.414,414.062,639.160,229.004,0.000
1587071691.804,-205.078,780.762,605.469,53.223,0.000
1587071691.808,-391.113,83.008,520.508,-202.148,0.000
1587071691.812,-372.559,-151.367,548.828,-89.355,0.000
1587071691.816,-181.641,613.281,612.793,193.359,0.000
1587071691.820,-176.758,989.258,549.316,122.070,0.000
1587071691.823,-327.148,-3.906,437.988,-186.523,0.000
1587071691.827,-340.332,-604.980,468.750,-170.410,0.000
1587071691.831,-200.195,437.500,556.641,140.137,0.000
1587071691.835,-147.461,938.477,534.668,192.871,0.000
1587071691.839,-283.203,56.641,473.145,-91.309,0.000
1587071691.843,-380.371,-344.727,522.949,-202.637,0.000
1587071691.847,-244.141,379.883,611.328,61.523,0.000
1587071691.851,-112.305,717.285,634.277,232.910,0.000
1587071691.855,-211.426,353.516,595.215,10.254,0.000
1587071691.859,-362.305,-292.969,565.430,-192.871,0.000
1587071691.862,-308.105,59.570,638.184,15.625,0.000
1587071691.866,-134.766,689.453,655.273,273.438,0.000
1587071691.870,-171.875,267.578,583.496,124.023,0.000
1587071691.874,-367.188,-340.820,564.941,-192.383,0.000
1587071691.878,-352.539,-346.191,581.055,-119.629,0.000
1587071691.882,-162.109,-1.465,585.449,188.965,0.000
1587071691.886,-134.766,71.289,568.359,180.664,0.000
1587071691.890,-310.547,92.285,535.645,-136.230,0.000
1587071691.894,-378.418,14.648,528.809,-154.297,0.000
1587071691.898,-206.543,110.840,577.148,149.414,0.000
1587071691.902,-122.070,527.832,572.754,239.746,0.000
1587071691.905,-269.043,583.984,465.820,-48.828,0.000
1587071691.909,-378.418,46.387,397.461,-207.031,0.000
1587071691.913,-251.465,-134.277,449.707,64.941,0.000
1587071691.917,-85.938,195.801,497.070,276.855,0.000
1587071691.921,-187.012,269.531,475.098,44.922,0.000
1587071691.925,-359.863,-257.324,443.848,-214.355,0.000
1587071691.929,-280.762,-397.949,506.836,-28.809,0.000
1587071691.933,-124.512,380.371,550.781,229.980,0.000
1587071691.937,-171.875,882.324,466.797,86.914,0.000
1587071691.941,-325.195,310.547,382.324,-222.656,0.000
1587071691.945,-308.105,-738.770,404.785,-100.098,0.000
1587071691.948,-137.207,-382.324,535.645,205.078,0.000
1587071691.952,-120.605,796.387,562.988,134.766,0.000
1587071691.956,-265.625,348.145,473.633,-160.645,0.000
1587071691.960,-297.852,-290.527,478.516,-174.805,0.000
1587071691.964,-148.926,13.672,529.297,138.672,0.000
1587071691.968,-68.848,484.375,525.879,212.402,0.000
1587071691.972,-229.980,178.223,460.938,-95.215,0.000
1587071691.976,-355.469,-878.418,427.246,-232.910,0.000
1587071691.980,-249.023,-411.133,539.551,3.418,0.000
1587071691.984,-108.887,922.852,567.871,221.191,0.000
1587071691.987,-163.086,638.184,455.078,71.289,0.000
1587071691.991,-331.543,-94.727,399.902,-209.473,0.000
1587071691.995,-297.363,214.844,464.844,-97.656,0.000
1587071691.999,-104.004,867.188,509.277,193.359,0.000
1587071692.003,-108.398,720.703,469.238,79.102,0.000
1587071692.007,-290.039,88.867,407.227,-222.168,0.000
1587071692.011,-318.359,-152.344,375.977,-172.852,0.000
1587071692.015,-176.758,279.785,392.578,112.305,0.000
1587071692.019,-121.094,589.355,376.465,125.488,0.000
1587071692.023,-300.293,385.742,348.633,-216.309,0.000
1587071692.027,-375.000,259.277,378.906,-254.395,0.000
1587071692.030,-192.871,517.578,423.828,80.566,0.000
1587071692.034,-101.562,519.043,407.715,193.359,0.000
1587071692.038,-231.445,387.695,345.703,-62.012,0.000
1587071692.042,-360.352,223.145,319.336,-246.582,0.000
1587071692.046,-250.000,204.102,390.625,-20.508,0.000
1587071692.050,-90.332,321.289,463.379,230.957,0.000
1587071692.054,-180.664,510.254,455.078,48.340,0.000
1587071692.058,-352.539,114.258,348.633,-242.676,0.000
1587071692.062,-293.457,-327.637,341.309,-87.891,0.000
1587071692.066,-109.375,-166.992,413.086,189.453,0.000
1587071692.070,-137.207,491.211,413.574,67.871,0.000
1587071692.073,-300.781,730.957,349.121,-236.816,0.000
1587071692.077,-303.711,84.473,334.473,-176.270,0.000
1587071692.081,-168.945,200.684,408.691,140.137,0.000
1587071692.085,-118.164,935.059,449.707,156.738,0.000
1587071692.089,-239.258,541.016,342.773,-124.023,0.000
1587071692.093,-336.914,-361.816,261.719,-218.262,0.000
1587071692.097,-222.168,93.750,308.594,27.832,0.000
1587071692.101,-105.469,974.121,308.105,170.410,0.000
1587071692.105,-211.426,531.250,240.234,-56.641,0.000
1587071692.109,-333.496,-476.562,250.000,-243.164,0.000
1587071692.112,-244.141,-172.852,352.539,-59.082,0.000
1587071692.116,-72.754,850.586,400.879,191.406,0.000
1587071692.120,-108.398,922.363,342.285,73.730,0.000
1587071692.124,-273.926,-288.574,247.559,-201.172,0.000
1587071692.128,-259.277,-526.367,313.477,-101.074,0.000
1587071692.132,-68.359,749.023,418.945,191.895,0.000
1587071692.136,-52.246,879.883,355.957,152.344,0.000
1587071692.140,-260.254,212.402,290.527,-158.203,0.000
1587071692.144,-316.406,34.180,308.105,-190.918,0.000
1587071692.148,-124.023,409.180,341.309,117.676,0.000
1587071692.152,-65.918,564.941,324.219,177.246,0.000
1587071692.155,-233.398,149.902,279.297,-133.789,0.000
1587071692.159,-312.988,-335.449,299.316,-272.949,0.000
1587071692.163,-183.105,132.812,382.812,-7.812,0.000
1587071692.167,-27.832,569.824,350.098,219.727,0.000
1587071692.171,-105.469,-31.250,253.906,44.922,0.000
1587071692.175,-295.898,-95.215,272.461,-231.445,0.000
1587071692.179,-239.258,267.090,302.246,-76.660,0.000
1587071692.183,-70.801,420.410,328.613,217.773,0.000
1587071692.187,-124.512,487.793,351.562,64.453,0.000
1587071692.191,-295.898,334.961,336.426,-247.070,0.000
1587071692.195,-311.035,160.645,360.840,-163.086,0.000
1587071692.198,-150.879,-20.996,413.086,138.672,0.000
1587071692.202,-141.113,145.508,432.129,109.375,0.000
1587071692.206,-315.918,241.211,384.277,-229.980,0.000
1587071692.210,-347.656,-329.102,366.211,-259.766,0.000
1587071692.214,-184.082,-193.359,455.078,73.730,0.000
1587071692.218,-82.031,488.281,478.516,163.574,0.000
1587071692.222,-215.820,647.461,393.066,-122.070,0.000
1587071692.226,-348.145,17.578,331.055,-287.109,0.000
1587071692.230,-228.027,-55.664,396.484,-21.973,0.000
1587071692.234,-70.312,669.434,439.941,195.312,0.000
1587071692.237,-167.480,958.008,386.230,-48.828,0.000
1587071692.241,-327.637,203.613,327.637,-291.504,0.000
1587071692.245,-255.371,-341.797,350.098,-128.906,0.000
1587071692.249,-91.309,282.227,401.367,144.531,0.000
1587071692.253,-99.121,570.801,356.934,81.543,0.000
1587071692.257,-261.719,-79.590,288.086,-237.793,0.000
1587071692.261,-256.836,-541.016,320.801,-171.875,0.000
1587071692.265,-90.332,149.414,405.762,169.434,0.000
1587071692.269,-37.109,749.023,384.277,145.508,0.000
1587071692.273,-205.078,315.918,306.641,-182.617,0.000
1587071692.277,-297.852,-180.664,297.852,-252.441,0.000
1587071692.280,-142.578,342.773,384.766,24.902,0.000
1587071692.284,-36.133,961.914,409.180,132.324,0.000
1587071692.288,-165.039,504.395,315.918,-130.859,0.000
1587071692.292,-287.109,-363.281,282.715,-329.102,0.000
1587071692.296,-171.387,-35.156,377.930,-98.145,0.000
1587071692.300,5.371,909.180,433.105,187.988,0.000
1587071692.304,-43.457,263.672,340.332,29.785,0.000
1587071692.308,-244.629,-603.516,306.641,-270.508,0.000
1587071692.312,-223.145,88.867,383.789,-153.320,0.000
1587071692.316,-34.668,642.578,385.254,154.785,0.000
1587071692.320,-51.758,679.688,333.008,86.914,0.000
1587071692.323,-236.328,78.125,278.320,-233.887,0.000
1587071692.327,-240.723,-115.723,318.359,-187.012,0.000
1587071692.331,-73.730,435.059,367.676,139.648,0.000
1587071692.335,-39.062,599.609,327.148,128.418,0.000
1587071692.339,-180.176,41.016,278.809,-185.547,0.000
1587071692.343,-273.438,-584.961,307.617,-319.336,0.000
1587071692.347,-122.559,-364.746,358.887,-28.809,0.000
1587071692.351,44.922,-131.348,366.699,209.961,0.000
1587071692.355,-91.309,240.723,370.117,-43.945,0.000
1587071692.359,-285.156,192.871,305.176,-292.969,0.000
1587071692.362,-181.152,-49.805,311.035,-63.477,0.000
1587071692.366,-1.953,494.629,374.023,219.727,0.000
1587071692.370,-61.523,912.109,373.535,84.473,0.000
1587071692.374,-240.234,407.227,333.496,-206.543,0.000
1587071692.378,-178.711,-100.098,360.352,-92.773,0.000
1587071692.382,0.488,316.895,397.949,192.383,0.000
1587071692.386,-29.785,551.758,327.148,130.371,0.000
1587071692.390,-194.824,126.465,269.531,-187.988,0.000
1587071692.394,-208.984,-653.809,248.535,-199.219,0.000
1587071692.398,-57.617,-464.355,311.035,113.770,0.000
1587071692.402,-3.418,863.770,357.910,162.109,0.000
1587071692.405,-135.254,743.652,275.391,-112.793,0.000
1587071692.409,-236.328,-20.508,260.254,-227.539,0.000
1587071692.413,-120.117,235.352,310.059,38.086,0.000
1587071692.417,20.996,827.637,289.551,230.469,0.000
1587071692.421,-68.848,606.445,229.004,21.484,0.000
1587071692.425,-231.445,31.738,222.656,-250.488,0.000
1587071692.429,-142.090,21.973,280.273,-74.219,0.000
1587071692.433,41.504,450.195,322.266,228.516,0.000
1587071692.437,15.137,433.105,284.668,116.699,0.000
1587071692.441,-169.434,-620.117,212.891,-199.707,0.000
1587071692.445,-190.430,-561.035,267.090,-134.766,0.000
1587071692.448,-27.344,578.125,321.289,180.176,0.000
1587071692.452,-1.953,695.801,267.090,149.414,0.000
1587071692.456,-164.551,175.293,199.219,-168.945,0.000
1587071692.460,-221.680,42.969,206.055,-228.027,0.000
1587071692.464,-72.754,561.035,272.461,66.895,0.000
1587071692.468,12.695,757.324,246.094,178.711,0.000
1587071692.472,-124.023,485.352,199.219,-91.797,0.000
1587071692.476,-229.492,130.859,182.617,-241.211,0.000
1587071692.480,-106.934,120.605,207.031,20.996,0.000
1587071692.484,58.594,31.738,218.750,251.465,0.000
1587071692.487,-39.551,-120.605,215.820,56.641,0.000
1587071692.491,-218.750,140.137,207.520,-236.328,0.000
1587071692.495,-118.164,167.969,176.758,-59.082,0.000
1587071692.499,69.336,61.523,195.801,254.883,0.000
1587071692.503,12.207,217.285,219.238,117.188,0.000
1587071692.507,-180.176,402.344,188.965,-214.355,0.000
1587071692.511,-174.805,118.164,178.711,-168.945,0.000
1587071692.515,8.301,157.227,246.094,176.758,0.000
1587071692.519,40.039,677.734,284.668,196.777,0.000
1587071692.523,-113.281,537.598,226.562,-130.859,0.000
1587071692.527,-176.270,-268.066,191.406,-206.543,0.000
1587071692.530,-51.758,-626.465,242.676,87.891,0.000
1587071692.534,31.250,29.297,286.133,223.145,0.000
1587071692.538,-110.352,603.027,233.887,-84.473,0.000
1587071692.542,-223.145,-64.453,157.227,-287.598,0.000
1587071692.546,-110.840,-230.957,220.703,-32.715,0.000
1587071692.550,27.832,745.117,312.988,191.895,0.000
1587071692.554,-28.809,847.168,253.418,17.090,0.000
1587071692.558,-185.059,-138.184,183.105,-240.234,0.000
1587071692.562,-136.719,-239.258,245.117,-89.844,0.000
1587071692.566,39.062,662.598,327.637,193.359,0.000
1587071692.570,25.879,958.496,282.227,90.820,0.000
1587071692.573,-115.723,-28.809,205.566,-205.078,0.000
1587071692.577,-131.836,-568.359,272.461,-186.035,0.000
1587071692.581,17.578,390.625,363.281,125.977,0.000
1587071692.585,104.492,-993.164,321.289,176.270,0.000
1587071692.589,-33.691,85.938,238.770,-115.234,0.000
1587071692.593,-151.855,-651.367,283.691,-227.051,0.000
1587071692.597,-28.320,211.914,406.250,60.059,0.000
1587071692.601,115.234,910.156,420.898,260.742,0.000
1587071692.605,9.766,232.910,341.797,48.828,0.000
1587071692.609,-156.738,-315.918,320.801,-187.988,0.000
1587071692.612,-67.871,137.695,346.680,8.789,0.000
1587071692.616,102.051,527.344,352.539,289.062,0.000
1587071692.620,36.133,340.820,297.363,116.699,0.000
1587071692.624,-146.484,-300.293,253.418,-186.523,0.000
1587071692.628,-82.520,-421.875,296.875,-92.773,0.000
1587071692.632,110.352,-1.465,340.820,233.887,0.000
1587071692.636,86.426,-59.570,309.570,197.754,0.000
1587071692.640,-89.844,-46.875,268.555,-148.438,0.000
1587071692.644,-98.633,137.207,261.230,-130.371,0.000
1587071692.648,78.125,261.719,312.988,223.145,0.000
1587071692.652,135.254,720.215,338.867,278.320,0.000
1587071692.655,-12.695,722.656,259.766,-20.996,0.000
1587071692.659,-123.535,177.246,209.961,-150.391,0.000
1587071692.663,-2.441,73.242,247.070,102.539,0.000
1587071692.667,137.207,416.992,275.391,274.902,0.000
1587071692.671,26.367,463.867,242.188,42.480,0.000
1587071692.675,-136.230,27.832,189.941,-196.289,0.000
1587071692.679,-53.223,-511.719,189.453,23.438,0.000
1587071692.683,82.031,-145.508,259.277,287.598,0.000
1587071692.687,20.020,862.793,277.344,99.121,0.000
1587071692.691,-112.793,324.219,203.613,-199.707,0.000
1587071692.695,-60.547,-343.262,270.020,-97.656,0.000
1587071692.698,104.492,389.648,380.859,217.773,0.000
1587071692.702,129.883,-950.195,350.098,214.355,0.000
1587071692.706,-26.855,506.836,267.578,-90.332,0.000
1587071692.710,-89.355,-152.344,258.789,-129.395,0.000
1587071692.714,66.895,155.273,328.613,176.758,0.000
1587071692.718,165.039,609.375,323.242,281.738,0.000
1587071692.722,14.648,113.281,217.285,8.301,0.000
1587071692.726,-139.160,-749.023,210.938,-153.320,0.000
1587071692.730,-28.809,-228.516,312.500,84.473,0.000
1587071692.734,157.715,568.359,307.617,340.820,0.000
1587071692.737,116.211,248.535,165.039,178.223,0.000
1587071692.741,-76.172,-108.398,13.184,-162.109,0.000
1587071692.745,-79.102,283.691,15.137,-96.191,0.000
1587071692.749,74.219,837.891,57.129,177.246,0.000
1587071692.753,41.992,705.078,31.738,87.891,0.000
1587071692.757,-158.203,190.430,-2.441,-212.891,0.000
1587071692.761,-143.555,-143.555,35.645,-151.367,0.000
1587071692.765,36.621,316.406,117.676,156.250,0.000
1587071692.769,55.664,312.500,70.801,157.227,0.000
1587071692.773,-109.375,-329.102,33.691,-149.414,0.000
1587071692.777,-184.082,111.328,107.422,-223.145,0.000
1587071692.780,-28.809,533.691,141.602,64.941,0.000
1587071692.784,118.652,770.020,177.734,189.453,0.000
1587071692.788,-15.137,665.527,142.578,-51.758,0.000
1587071692.792,-176.758,14.160,88.867,-196.777,0.000
1587071692.796,-41.504,-5.371,159.668,59.570,0.000
1587071692.800,135.254,614.746,208.496,283.203,0.000
1587071692.804,68.848,753.418,179.688,107.422,0.000
1587071692.808,-93.750,98.145,140.137,-164.062,0.000
1587071692.812,-51.270,-237.793,130.859,-62.012,0.000
1587071692.816,111.816,-200.684,161.133,224.121,0.000
1587071692.820,79.590,465.820,188.477,131.836,0.000
1587071692.823,-96.191,645.508,110.352,-189.453,0.000
1587071692.827,-90.332,-57.129,89.355,-135.742,0.000
1587071692.831,101.562,307.129,171.387,188.965,0.000
1587071692.835,159.668,-983.398,187.500,225.586,0.000
1587071692.839,4.395,681.641,103.027,-69.336,0.000
1587071692.843,-75.195,-56.641,74.219,-172.363,0.000
1587071692.847,41.504,150.879,155.273,120.117,0.000
1587071692.851,168.457,719.238,211.426,281.250,0.000
1587071692.855,77.637,364.258,188.965,62.012,0.000
1587071692.859,-84.961,-491.211,182.617,-154.785,0.000
1587071692.862,-9.277,-248.047,245.605,27.344,0.000
1587071692.866,152.832,717.773,257.324,300.293,0.000
1587071692.870,92.773,809.082,190.430,178.711,0.000
1587071692.874,-74.219,-379.395,94.727,-79.102,0.000
1587071692.878,-27.344,-510.254,140.137,22.949,0.000
1587071692.882,182.617,781.250,213.379,291.016,0.000
1587071692.886,166.992,834.473,129.395,239.258,0.000
1587071692.890,-38.086,184.082,60.547,-69.824,0.000
1587071692.894,-68.359,59.082,97.656,-81.055,0.000
1587071692.898,93.262,490.234,143.066,232.910,0.000
1587071692.902,170.410,581.543,99.609,315.918,0.000
1587071692.905,31.250,-318.359,58.594,12.207,0.000
1587071692.909,-79.102,-759.766,132.324,-150.391,0.000
1587071692.913,39.551,-20.508,216.309,136.230,0.000
1587071692.917,194.824,496.094,207.520,342.285,0.000
1587071692.921,115.723,449.219,162.598,117.188,0.000
1587071692.925,-55.664,210.938,158.691,-144.043,0.000
1587071692.929,1.953,198.242,156.738,19.531,0.000
1587071692.933,173.340,536.621,156.250,290.527,0.000
1587071692.937,148.438,581.543,125.977,170.410,0.000
1587071692.941,-33.203,266.602,77.637,-124.023,0.000
1587071692.945,-27.344,92.285,107.910,-11.719,0.000
1587071692.948,173.340,126.465,171.387,303.223,0.000
1587071692.952,171.387,344.238,180.176,241.211,0.000
1587071692.956,-36.133,400.391,122.559,-100.098,0.000
1587071692.960,-87.891,30.273,106.934,-127.441,0.000
1587071692.964,72.266,-27.344,176.758,204.590,0.000
1587071692.968,143.066,350.586,179.688,283.203,0.000
1587071692.972,0.488,500.488,107.910,-23.926,0.000
1587071692.976,-110.840,65.430,47.363,-181.641,0.000
1587071692.980,31.738,-297.852,81.543,60.547,0.000
1587071692.984,174.316,368.164,156.250,247.559,0.000
1587071692.987,65.430,953.125,85.938,38.086,0.000
1587071692.991,-83.008,157.715,-23.438,-202.148,0.000
1587071692.995,13.672,-294.922,29.297,-23.438,0.000
1587071692.999,174.316,342.285,103.027,257.812,0.000
1587071693.003,107.910,803.223,73.730,139.160,0.000
1587071693.007,-73.730,311.035,-10.742,-180.664,0.000
1587071693.011,-57.129,-648.438,-24.414,-116.211,0.000
1587071693.015,103.516,130.859,108.398,176.270,0.000
1587071693.019,154.297,-870.117,116.211,158.691,0.000
1587071693.023,-3.418,306.641,19.043,-138.672,0.000
1587071693.027,-116.211,-319.824,33.691,-210.449,0.000
1587071693.030,37.109,467.773,120.117,73.730,0.000
1587071693.034,162.109,-942.871,122.070,234.863,0.000
1587071693.038,20.996,532.227,59.082,15.137,0.000
1587071693.042,-90.332,-274.902,60.059,-151.367,0.000
1587071693.046,41.504,88.379,172.363,81.543,0.000
1587071693.050,186.035,-973.633,205.566,324.707,0.000
1587071693.054,129.395,303.711,92.285,176.270,0.000
1587071693.058,-62.988,-428.223,79.102,-104.004,0.000
1587071693.062,-25.879,150.391,147.461,1.953,0.000
1587071693.066,171.875,671.875,147.461,297.363,0.000
1587071693.070,155.273,697.754,106.445,224.121,0.000
1587071693.073,-20.996,258.789,66.895,-99.609,0.000
1587071693.077,-54.199,200.195,63.477,-110.352,0.000
1587071693.081,104.004,407.715,69.336,223.145,0.000
1587071693.085,170.410,422.852,57.617,282.715,0.000
1587071693.089,0.000,177.246,26.367,-55.176,0.000
1587071693.093,-113.281,-145.508,18.555,-182.129,0.000
1587071693.097,33.691,-6.836,62.988,117.188,0.000
1587071693.101,170.898,187.012,79.102,284.668,0.000
1587071693.105,36.133,437.012,67.383,31.250,0.000
1587071693.109,-107.422,404.297,23.926,-187.988,0.000
1587071693.112,12.695,67.383,23.438,31.738,0.000
1587071693.116,172.852,471.680,69.336,283.203,0.000
1587071693.120,79.102,870.117,57.617,108.398,0.000
1587071693.124,-87.891,316.895,-4.883,-157.715,0.000
1587071693.128,-25.879,-87.891,35.645,-30.273,0.000
1587071693.132,147.461,377.930,106.934,275.391,0.000
1587071693.136,147.461,600.586,69.336,245.605,0.000
1587071693.140,-23.926,-12.695,15.625,-78.613,0.000
1587071693.144,-86.426,-417.480,42.480,-124.023,0.000
1587071693.148,55.664,267.578,112.305,171.875,0.000
1587071693.152,149.414,-990.723,109.863,253.906,0.000
1587071693.155,22.949,650.879,34.668,-9.766,0.000
1587071693.159,-97.168,-168.457,26.855,-146.484,0.000
1587071693.163,54.688,46.875,113.770,121.582,0.000
1587071693.167,195.312,858.887,143.555,311.523,0.000
1587071693.171,69.824,688.477,68.848,78.125,0.000
1587071693.175,-78.125,-551.270,-16.113,-173.340,0.000
1587071693.179,-22.949,-645.996,60.059,-14.160,0.000
1587071693.183,126.953,354.980,137.695,252.930,0.000
1587071693.187,88.867,357.422,56.641,112.793,0.000
1587071693.191,-87.891,-572.266,7.812,-203.125,0.000
1587071693.195,-84.473,-458.496,86.426,-112.305,0.000
1587071693.198,104.004,452.637,116.211,191.406,0.000
1587071693.202,125.488,370.117,64.453,165.527,0.000
1587071693.206,-40.039,-26.367,37.598,-108.398,0.000
1587071693.210,-60.547,-13.672,62.500,-131.836,0.000
1587071693.214,94.727,297.852,84.473,164.551,0.000
1587071693.218,123.535,380.859,75.195,220.703,0.000
1587071693.222,-65.918,225.098,35.645,-122.559,0.000
1587071693.226,-187.988,-37.109,-8.789,-284.180,0.000
1587071693.230,-29.785,-149.414,22.461,-11.719,0.000
1587071693.234,125.977,311.035,72.266,180.176,0.000
1587071693.237,31.250,520.508,45.898,-29.785,0.000
1587071693.241,-123.535,172.852,31.250,-263.672,0.000
1587071693.245,-59.570,78.613,58.594,-93.262,0.000
1587071693.249,103.027,352.051,91.309,166.504,0.000
1587071693.253,86.426,641.113,76.660,65.918,0.000
1587071693.257,-110.840,151.855,1.465,-204.102,0.000
1587071693.261,-127.441,-302.734,13.672,-138.672,0.000
1587071693.265,72.754,-341.797,40.039,154.785,0.000
1587071693.269,86.914,51.758,58.105,128.418,0.000
1587071693.273,-91.309,216.309,38.086,-172.363,0.000
1587071693.277,-132.324,-438.965,3.418,-213.379,0.000
1587071693.280,18.066,-670.898,44.434,102.539,0.000
1587071693.284,78.613,73.730,86.914,180.176,0.000
1587071693.288,-70.801,674.316,17.578,-115.723,0.000
1587071693.292,-189.941,-19.043,-51.758,-265.137,0.000
1587071693.296,-61.035,-57.129,24.902,-42.969,0.000
1587071693.300,82.520,781.250,80.078,152.832,0.000
1587071693.304,0.000,878.906,0.488,-35.645,0.000
1587071693.308,-162.109,-62.012,-69.824,-274.902,0.000
1587071693.312,-101.562,-268.555,6.348,-130.859,0.000
1587071693.316,74.219,498.047,42.969,142.090,0.000
1587071693.320,46.875,568.359,-19.043,68.359,0.000
1587071693.323,-126.953,-333.984,-76.660,-222.168,0.000
1587071693.327,-157.227,-579.590,-37.109,-205.078,0.000
1587071693.331,6.836,364.258,30.762,118.652,0.000
1587071693.335,62.500,792.480,0.488,178.223,0.000
1587071693.339,-97.168,-166.016,-82.520,-118.652,0.000
1587071693.343,-189.941,-828.125,-61.523,-233.398,0.000
1587071693.347,-54.199,98.145,30.273,13.672,0.000
1587071693.351,76.172,632.324,18.555,192.383,0.000
1587071693.355,-49.805,335.938,-49.316,-56.152,0.000
1587071693.359,-184.570,-73.730,-60.059,-283.691,0.000
1587071693.362,-77.637,131.348,12.207,-70.801,0.000
1587071693.366,79.102,536.133,43.457,199.707,0.000
1587071693.370,26.855,221.680,-11.719,53.223,0.000
1587071693.374,-166.504,-374.512,-59.082,-268.066,0.000
1587071693.378,-152.832,-411.133,-16.602,-161.133,0.000
1587071693.382,12.695,26.855,16.602,149.902,0.000
1587071693.386,8.301,168.945,-9.277,83.984,0.000
1587071693.390,-182.129,135.254,-28.320,-249.512,0.000
1587071693.394,-213.379,37.109,-22.949,-250.977,0.000
1587071693.398,-27.344,127.441,44.434,67.383,0.000
1587071693.402,37.598,547.852,56.152,102.051,0.000
1587071693.405,-109.375,519.043,0.000,-192.383,0.000
1587071693.409,-204.590,-21.484,-13.672,-283.691,0.000
1587071693.413,-88.867,-104.980,-1.465,-34.180,0.000
1587071693.417,19.043,230.957,-10.742,117.188,0.000
1587071693.421,-79.590,360.840,-48.828,-102.051,0.000
1587071693.425,-235.352,78.125,-81.543,-342.285,0.000
1587071693.429,-143.066,-536.133,-57.617,-125.977,0.000
1587071693.433,21.484,-395.996,-0.488,162.598,0.000
1587071693.437,-40.039,453.125,-32.227,-20.508,0.000
1587071693.441,-212.891,76.172,-139.648,-332.031,0.000
1587071693.445,-219.727,-342.285,-131.836,-247.559,0.000
1587071693.448,-53.223,261.719,-61.523,65.430,0.000
1587071693.452,-24.902,734.863,-74.707,44.434,0.000
1587071693.456,-181.641,176.270,-130.371,-279.785,0.000
1587071693.460,-239.746,-484.375,-128.906,-288.574,0.000
1587071693.464,-85.449,-244.629,-61.523,34.668,0.000
1587071693.468,3.906,247.559,-34.668,128.418,0.000
1587071693.472,-146.484,-40.039,-99.121,-146.973,0.000
1587071693.476,-267.578,-803.711,-117.188,-299.316,0.000
1587071693.480,-147.461,-171.387,-4.395,-79.102,0.000
1587071693.484,3.418,704.102,-5.371,107.910,0.000
1587071693.487,-79.102,291.992,-83.496,-82.031,0.000
1587071693.491,-233.398,-386.230,-114.746,-325.684,0.000
1587071693.495,-177.246,-59.082,-40.039,-157.227,0.000
1587071693.499,-37.109,776.855,12.695,100.586,0.000
1587071693.503,-88.379,704.590,-28.809,-20.020,0.000
1587071693.507,-267.578,53.711,-63.965,-305.664,0.000
1587071693.511,-246.094,-290.527,-50.781,-231.934,0.000
1587071693.515,-77.637,232.422,-9.277,53.711,0.000
1587071693.519,-51.758,296.875,-71.289,48.828,0.000
1587071693.523,-229.004,-74.219,-107.422,-256.836,0.000
1587071693.527,-292.969,37.109,-70.801,-308.105,0.000
1587071693.530,-110.352,341.797,-22.949,-6.348,0.000
1587071693.534,-5.859,520.996,-2.441,96.680,0.000
1587071693.538,-148.926,396.484,-23.438,-187.988,0.000
1587071693.542,-270.020,124.023,-66.406,-349.121,0.000
1587071693.546,-151.855,85.449,-41.016,-116.211,0.000
1587071693.550,8.789,60.059,-7.812,117.676,0.000
1587071693.554,-83.496,199.707,-18.066,-70.312,0.000
1587071693.558,-287.598,-38.086,-62.988,-364.746,0.000
1587071693.562,-240.234,-613.770,-66.406,-208.496,0.000
1587071693.566,-73.730,-247.070,8.301,67.871,0.000
1587071693.570,-118.652,548.340,30.762,-56.641,0.000
1587071693.573,-296.875,512.207,-34.180,-381.348,0.000
1587071693.577,-297.852,-174.805,-55.664,-331.543,0.000
1587071693.581,-140.137,-333.984,8.789,-12.695,0.000
1587071693.585,-100.586,517.578,59.082,-9.277,0.000
1587071693.589,-241.211,584.961,-26.367,-305.176,0.000
1587071693.593,-323.242,-163.574,-48.340,-360.840,0.000
1587071693.597,-174.316,26.855,43.457,-72.266,0.000
1587071693.601,-47.852,828.125,63.477,81.055,0.000
1587071693.605,-141.113,454.590,-25.879,-125.000,0.000
1587071693.609,-283.691,-600.098,-66.406,-327.637,0.000
1587071693.612,-218.750,-332.031,14.160,-161.133,0.000
1587071693.616,-56.641,763.184,72.266,41.992,0.000
1587071693.620,-150.391,904.297,19.531,-120.117,0.000
1587071693.624,-362.305,-339.844,-103.027,-409.668,0.000
1587071693.628,-333.496,-686.523,-62.500,-325.684,0.000
1587071693.632,-170.410,574.219,72.266,-25.879,0.000
1587071693.636,-145.996,799.316,31.738,-35.645,0.000
1587071693.640,-290.039,83.496,-25.391,-327.637,0.000
1587071693.644,-315.430,-114.258,14.160,-311.035,0.000
1587071693.648,-133.789,408.203,65.918,4.883,0.000
1587071693.652,-71.777,659.180,28.809,39.551,0.000
1587071693.655,-235.840,-322.754,-33.691,-253.418,0.000
1587071693.659,-351.074,-854.004,-3.906,-388.672,0.000
1587071693.663,-233.398,20.020,56.152,-156.738,0.000
1587071693.667,-113.281,469.238,41.992,20.996,0.000
1587071693.671,-235.352,265.625,-20.996,-208.984,0.000
1587071693.675,-385.254,90.332,-51.270,-473.633,0.000
1587071693.679,-290.039,202.148,-17.578,-267.578,0.000
1587071693.683,-110.840,539.551,40.527,41.992,0.000
1587071693.687,-147.461,703.125,40.039,-97.168,0.000
1587071693.691,-321.777,379.883,-14.160,-385.742,0.000
1587071693.695,-296.875,-151.367,-20.508,-265.137,0.000
1587071693.698,-119.141,-49.805,38.086,54.199,0.000
1587071693.702,-121.582,331.055,51.758,-9.766,0.000
1587071693.706,-307.617,409.180,31.738,-382.812,0.000
1587071693.710,-327.148,93.262,22.949,-401.855,0.000
1587071693.714,-172.363,-39.062,53.711,-104.004,0.000
1587071693.718,-107.910,497.559,80.078,-29.785,0.000
1587071693.722,-238.770,534.180,33.691,-266.602,0.000
1587071693.726,-351.562,-151.367,10.742,-417.969,0.000
1587071693.730,-231.934,-729.980,34.668,-156.250,0.000
1587071693.734,-119.629,-179.688,99.609,42.480,0.000
1587071693.737,-209.961,644.531,88.379,-181.152,0.000
1587071693.741,-359.375,-0.488,-1.465,-438.477,0.000
1587071693.745,-306.152,-435.547,5.371,-283.691,0.000
1587071693.749,-140.137,143.555,59.082,9.277,0.000
1587071693.753,-161.133,389.160,78.613,-74.219,0.000
1587071693.757,-337.402,-254.883,60.059,-387.207,0.000
1587071693.761,-324.707,-844.238,96.191,-321.777,0.000
1587071693.765,-163.574,64.941,216.309,-15.137,0.000
1587071693.769,-134.766,997.070,174.316,-28.320,0.000
1587071693.773,-295.898,325.195,56.152,-337.402,0.000
1587071693.777,-380.371,-258.301,73.730,-395.020,0.000
1587071693.780,-223.145,254.883,148.438,-90.332,0.000
1587071693.784,-119.141,583.496,140.625,14.160,0.000
1587071693.788,-256.348,45.410,85.938,-244.629,0.000
1587071693.792,-396.973,-586.426,77.637,-426.758,0.000
1587071693.796,-291.992,-259.766,156.250,-204.590,0.000
1587071693.800,-147.949,701.660,208.008,7.812,0.000
1587071693.804,-214.355,76.172,124.512,-155.762,0.000
1587071693.808,-378.418,-784.668,126.953,-410.645,0.000
1587071693.812,-340.820,-72.266,203.613,-281.738,0.000
1587071693.816,-160.156,548.828,209.961,1.953,0.000
1587071693.820,-174.805,587.891,179.688,-87.891,0.000
1587071693.823,-375.000,89.844,133.789,-388.672,0.000
1587071693.827,-386.719,-20.996,160.645,-362.305,0.000
1587071693.831,-200.684,398.926,208.496,-24.902,0.000
1587071693.835,-177.734,575.195,166.504,1.465,0.000
1587071693.839,-358.398,86.914,102.539,-343.262,0.000
1587071693.843,-459.473,-484.375,114.746,-452.637,0.000
1587071693.847,-308.105,-320.312,143.555,-158.203,0.000
1587071693.851,-192.383,-235.352,156.250,-6.836,0.000
1587071693.855,-324.219,47.852,165.527,-263.672,0.000
1587071693.859,-437.012,-41.992,117.188,-472.168,0.000
1587071693.862,-319.824,-204.590,174.805,-250.977,0.000
1587071693.866,-179.688,414.551,251.465,20.996,0.000
1587071693.870,-248.047,792.969,224.609,-132.324,0.000
1587071693.874,-394.531,271.484,183.594,-410.156,0.000
1587071693.878,-354.492,-273.926,205.078,-270.996,0.000
1587071693.882,-157.227,191.895,276.367,46.387,0.000
1587071693.886,-135.742,465.332,264.648,-6.348,0.000
1587071693.890,-369.141,-311.035,188.965,-303.223,0.000
1587071693.894,-424.805,-745.117,235.352,-298.340,0.000
1587071693.898,-261.719,-106.934,315.430,-49.316,0.000
1587071693.902,-189.941,497.070,286.133,-6.836,0.000
1587071693.905,-330.566,243.164,238.281,-296.387,0.000
1587071693.909,-430.664,-664.062,212.891,-433.594,0.000
1587071693.913,-330.566,-491.211,286.133,-166.992,0.000
1587071693.917,-224.609,635.254,308.594,-19.043,0.000
1587071693.921,-318.359,469.727,244.141,-263.184,0.000
1587071693.925,-483.398,-161.621,233.398,-475.586,0.000
1587071693.929,-402.832,-37.109,253.906,-290.527,0.000
1587071693.933,-226.074,360.840,258.301,-39.551,0.000
1587071693.937,-257.812,204.102,219.727,-172.852,0.000
1587071693.941,-424.316,-619.141,180.176,-436.035,0.000
1587071693.945,-415.039,-416.504,281.738,-346.191,0.000
1587071693.948,-212.891,573.242,354.004,-36.133,0.000
1587071693.952,-173.340,619.629,309.570,-35.645,0.000
1587071693.956,-346.191,-82.031,262.695,-354.492,0.000
1587071693.960,-413.086,-534.668,293.945,-408.203,0.000
1587071693.964,-253.418,113.281,379.883,-128.418,0.000
1587071693.968,-184.570,564.453,354.980,-48.828,0.000
1587071693.972,-342.285,168.457,316.406,-331.543,0.000
1587071693.976,-452.148,-156.250,310.059,-474.121,0.000
1587071693.980,-328.125,-103.027,319.336,-191.895,0.000
1587071693.984,-184.082,-29.785,341.309,5.371,0.000
1587071693.987,-281.250,64.941,331.055,-236.816,0.000
1587071693.991,-444.336,171.387,321.777,-483.887,0.000
1587071693.995,-361.816,216.797,350.098,-289.062,0.000
1587071693.999,-174.805,116.211,374.023,-0.977,0.000
1587071694.003,-229.980,200.684,381.836,-137.207,0.000
1587071694.007,-425.293,283.203,375.000,-445.312,0.000
1587071694.011,-408.203,-104.492,387.207,-372.559,0.000
1587071694.015,-219.727,108.887,435.059,-42.480,0.000
1587071694.019,-192.383,501.465,481.445,-61.523,0.000
1587071694.023,-358.887,300.781,459.473,-391.113,0.000
1587071694.027,-389.160,-335.938,458.008,-410.645,0.000
1587071694.030,-240.723,-263.184,530.273,-108.398,0.000
1587071694.034,-170.898,475.586,562.012,-20.508,0.000
1587071694.038,-299.805,626.465,517.578,-276.367,0.000
1587071694.042,-414.551,-90.332,463.867,-424.316,0.000
1587071694.046,-300.293,-526.855,510.254,-184.570,0.000
1587071694.050,-172.852,437.012,583.984,38.574,0.000
1587071694.054,-253.418,791.504,530.273,-138.672,0.000
1587071694.058,-389.648,-149.902,484.863,-409.180,0.000
1587071694.062,-316.895,-195.801,560.547,-260.742,0.000
1587071694.066,-179.199,714.355,641.602,28.320,0.000
1587071694.070,-215.820,928.711,590.820,-69.336,0.000
1587071694.073,-415.527,-193.359,474.609,-392.090,0.000
1587071694.077,-439.941,-822.754,502.441,-363.770,0.000
1587071694.081,-261.230,133.301,594.727,-41.504,0.000
1587071694.085,-213.379,833.008,551.270,-4.395,0.000
1587071694.089,-377.441,23.438,468.262,-316.406,0.000
1587071694.093,-464.355,-445.312,503.418,-406.738,0.000
1587071694.097,-315.918,324.707,580.078,-121.582,0.000
1587071694.101,-201.172,805.664,570.801,5.859,0.000
1587071694.105,-293.457,289.062,506.348,-223.633,0.000
1587071694.109,-432.129,-249.512,527.832,-417.969,0.000
1587071694.112,-379.883,94.727,579.590,-247.559,0.000
1587071694.116,-226.074,434.570,579.590,-6.348,0.000
1587071694.120,-264.648,101.074,540.527,-152.344,0.000
1587071694.124,-457.520,-461.426,504.395,-445.312,0.000
1587071694.128,-419.922,-297.363,541.016,-317.383,0.000
1587071694.132,-220.215,258.789,583.496,-8.301,0.000
1587071694.136,-244.141,120.605,554.199,-82.031,0.000
1587071694.140,-448.242,34.668,532.715,-415.527,0.000
1587071694.144,-456.055,-40.527,503.418,-412.598,0.000
1587071694.148,-305.664,86.426,536.133,-97.656,0.000
1587071694.152,-259.277,455.078,549.805,-54.688,0.000
1587071694.155,-393.555,390.137,509.277,-346.191,0.000
1587071694.159,-481.445,75.684,503.418,-454.102,0.000
1587071694.163,-329.102,45.898,534.668,-184.570,0.000
1587071694.167,-200.195,309.082,552.734,5.371,0.000
1587071694.171,-314.453,338.379,521.484,-227.051,0.000
1587071694.175,-488.281,70.801,476.074,-482.910,0.000
1587071694.179,-411.133,-604.980,452.637,-270.020,0.000
1587071694.183,-272.461,-274.414,513.184,0.977,0.000
1587071694.187,-337.891,830.078,520.996,-155.273,0.000
1587071694.191,-496.094,284.668,423.340,-425.781,0.000
1587071694.195,-480.469,-190.430,456.055,-328.125,0.000
1587071694.198,-309.570,423.828,541.016,-33.691,0.000
1587071694.202,-296.875,909.180,500.977,-87.402,0.000
1587071694.206,-462.891,353.516,417.969,-409.180,0.000
1587071694.210,-467.285,-358.887,442.383,-398.926,0.000
1587071694.214,-300.293,-112.793,530.273,-108.887,0.000
1587071694.218,-275.391,310.059,519.531,-61.523,0.000
1587071694.222,-401.367,-35.156,434.082,-295.410,0.000
1587071694.226,-490.234,-783.203,419.922,-415.527,0.000
1587071694.230,-379.883,-301.270,524.902,-196.777,0.000
1587071694.234,-245.117,720.703,550.293,-22.461,0.000
1587071694.237,-342.285,438.965,446.289,-237.305,0.000
1587071694.241,-498.047,-239.746,436.523,-483.887,0.000
1587071694.245,-416.016,145.996,515.625,-279.297,0.000
1587071694.249,-228.516,546.875,485.840,12.207,0.000
1587071694.253,-266.113,294.434,448.242,-125.977,0.000
1587071694.257,-478.516,-66.895,434.082,-435.059,0.000
1587071694.261,-486.328,-316.895,425.781,-377.441,0.000
1587071694.265,-297.363,130.371,467.285,-54.199,0.000
1587071694.269,-236.328,2.930,411.133,-13.672,0.000
1587071694.273,-391.602,-534.180,376.465,-332.520,0.000
1587071694.277,-490.723,-127.441,401.855,-452.637,0.000
1587071694.280,-373.535,298.340,429.688,-172.363,0.000
1587071694.284,-278.809,526.367,445.801,-62.500,0.000
1587071694.288,-378.906,281.738,412.598,-302.734,0.000
1587071694.292,-487.793,-8.301,412.598,-466.797,0.000
1587071694.296,-371.582,71.289,439.453,-228.516,0.000
1587071694.300,-220.215,464.355,454.590,9.766,0.000
1587071694.304,-312.988,430.176,396.973,-185.059,0.000
1587071694.308,-466.797,-389.648,343.750,-440.430,0.000
1587071694.312,-415.039,-507.324,395.020,-280.762,0.000
1587071694.316,-257.324,-452.148,440.918,-14.648,0.000
1587071694.320,-295.898,-117.188,469.238,-165.527,0.000
1587071694.323,-472.656,152.344,437.012,-467.285,0.000
1587071694.327,-482.910,-413.574,423.340,-386.719,0.000
1587071694.331,-334.961,-50.293,482.910,-104.980,0.000
1587071694.335,-275.391,751.465,488.281,-94.727,0.000
1587071694.339,-420.410,486.328,414.551,-387.695,0.000
1587071694.343,-505.859,-327.637,383.301,-484.375,0.000
1587071694.347,-364.258,-112.793,455.566,-201.172,0.000
1587071694.351,-265.137,633.789,450.195,-70.801,0.000
1587071694.355,-429.688,207.031,336.914,-348.633,0.000
1587071694.359,-592.285,-625.000,308.594,-555.664,0.000
1587071694.362,-502.441,-291.504,369.141,-358.887,0.000
1587071694.366,-338.379,517.578,391.602,-109.375,0.000
1587071694.370,-407.227,450.195,339.355,-277.832,0.000
1587071694.374,-583.008,-534.668,241.699,-552.734,0.000
1587071694.378,-553.711,-646.484,285.156,-406.738,0.000
1587071694.382,-405.273,512.207,357.422,-168.457,0.000
1587071694.386,-411.133,715.820,284.180,-254.883,0.000
1587071694.390,-552.734,-18.066,247.559,-538.086,0.000
1587071694.394,-614.258,-190.430,312.500,-564.453,0.000
1587071694.398,-520.020,434.570,335.449,-295.898,0.000
1587071694.402,-503.906,477.051,267.090,-312.500,0.000
1587071694.405,-666.992,-583.984,200.684,-616.211,0.000
1587071694.409,-774.414,-743.652,269.043,-709.961,0.000
1587071694.413,-665.039,339.355,323.242,-473.633,0.000
1587071694.417,-559.082,797.852,225.098,-335.938,0.000
1587071694.421,-718.262,474.609,147.949,-610.840,0.000
1587071694.425,-890.137,-88.379,129.883,-833.008,0.000
1587071694.429,-814.941,-127.441,175.293,-624.023,0.000
1587071694.433,-647.949,417.480,180.664,-408.691,0.000
1587071694.437,-711.914,546.875,83.984,-586.914,0.000
1587071694.441,-913.086,174.805,23.438,-869.629,0.000
1587071694.445,-885.742,82.520,17.578,-776.855,0.000
1587071694.448,-700.195,57.617,-31.738,-447.754,0.000
1587071694.452,-681.152,207.031,-88.867,-495.117,0.000
1587071694.456,-862.305,409.668,-117.188,-807.129,0.000
1587071694.460,-881.348,66.406,-138.184,-755.859,0.000
1587071694.464,-702.148,-46.875,-91.309,-441.895,0.000
1587071694.468,-631.836,557.617,-61.523,-395.996,0.000
1587071694.472,-740.723,694.824,-142.578,-653.320,0.000
1587071694.476,-825.684,10.742,-194.824,-780.762,0.000
1587071694.480,-689.941,18.555,-156.250,-483.887,0.000
1587071694.484,-524.414,518.555,-132.324,-256.348,0.000
1587071694.487,-613.770,599.609,-165.039,-471.191,0.000
1587071694.491,-753.906,35.645,-206.543,-679.688,0.000
1587071694.495,-645.508,-343.750,-169.434,-466.309,0.000
1587071694.499,-437.012,148.438,-100.098,-166.992,0.000
1587071694.503,-471.680,587.402,-127.441,-288.574,0.000
1587071694.507,-630.371,157.715,-250.488,-549.805,0.000
1587071694.511,-582.031,-479.980,-274.902,-451.172,0.000
1587071694.515,-430.176,367.676,-191.406,-186.035,0.000
1587071694.519,-431.152,-930.664,-256.836,-214.355,0.000
1587071694.523,-610.352,355.469,-340.332,-480.469,0.000
1587071694.527,-661.133,-57.617,-342.773,-513.672,0.000
1587071694.530,-498.047,579.102,-333.008,-248.535,0.000
1587071694.534,-404.297,-939.453,-384.277,-148.926,0.000
1587071694.538,-549.316,451.172,-472.168,-407.227,0.000
1587071694.542,-681.641,-258.301,-476.562,-593.262,0.000
1587071694.546,-556.641,-12.207,-413.086,-365.723,0.000
1587071694.550,-390.137,578.613,-370.117,-131.836,0.000
1587071694.554,-460.938,226.562,-414.551,-301.270,0.000
1587071694.558,-621.094,-416.504,-422.852,-534.180,0.000
1587071694.562,-555.176,332.520,-347.656,-377.441,0.000
1587071694.566,-371.094,912.109,-337.402,-90.820,0.000
1587071694.570,-404.297,908.691,-369.629,-201.660,0.000
1587071694.573,-603.027,561.035,-400.879,-515.625,0.000
1587071694.577,-606.445,270.996,-381.348,-446.289,0.000
1587071694.581,-395.508,519.043,-313.477,-137.207,0.000
1587071694.585,-347.656,859.375,-304.688,-128.906,0.000
1587071694.589,-522.461,429.688,-369.629,-438.965,0.000
1587071694.593,-613.770,-169.434,-378.418,-546.387,0.000
1587071694.597,-480.957,2.441,-344.238,-243.652,0.000
1587071694.601,-381.836,-79.102,-344.238,-90.820,0.000
1587071694.605,-523.438,113.770,-339.355,-370.117,0.000
1587071694.609,-666.992,355.469,-374.512,-590.332,0.000
1587071694.612,-563.477,150.879,-366.211,-374.023,0.000
1587071694.616,-409.668,590.820,-313.477,-122.070,0.000
1587071694.620,-458.496,917.480,-323.730,-300.293,0.000
1587071694.624,-614.746,395.508,-363.770,-558.594,0.000
1587071694.628,-576.660,-13.672,-328.613,-404.785,0.000
1587071694.632,-405.273,532.227,-266.602,-133.301,0.000
1587071694.636,-425.781,729.980,-311.523,-226.074,0.000
1587071694.640,-625.000,100.586,-378.418,-533.203,0.000
1587071694.644,-636.719,-650.391,-401.855,-511.230,0.000
1587071694.648,-466.309,-453.613,-348.633,-225.586,0.000
1587071694.652,-467.285,746.582,-323.242,-241.211,0.000
1587071694.655,-615.723,579.102,-403.809,-541.504,0.000
1587071694.659,-683.594,-480.469,-437.012,-613.770,0.000
1587071694.663,-556.152,-145.996,-386.230,-355.469,0.000
1587071694.667,-426.270,964.844,-360.352,-195.801,0.000
1587071694.671,-547.363,725.098,-441.895,-423.340,0.000
1587071694.675,-705.566,-308.594,-491.699,-657.715,0.000
1587071694.679,-612.793,-139.648,-421.875,-457.520,0.000
1587071694.683,-452.148,625.977,-422.852,-226.074,0.000
1587071694.687,-532.715,411.133,-492.676,-362.305,0.000
1587071694.691,-726.562,-468.262,-510.254,-636.230,0.000
1587071694.695,-687.988,-416.016,-439.453,-560.547,0.000
1587071694.698,-506.348,586.914,-389.160,-254.883,0.000
1587071694.702,-504.883,666.992,-455.078,-290.527,0.000
1587071694.706,-677.734,205.566,-521.973,-608.398,0.000
1587071694.710,-712.402,245.117,-486.328,-626.465,0.000
1587071694.714,-546.875,645.508,-437.012,-312.500,0.000
1587071694.718,-462.891,671.875,-461.914,-244.141,0.000
1587071694.722,-599.609,355.469,-488.281,-536.133,0.000
1587071694.726,-690.430,143.066,-470.703,-635.742,0.000
1587071694.730,-552.246,207.520,-438.477,-392.578,0.000
1587071694.734,-429.688,58.105,-466.309,-201.660,0.000
1587071694.737,-556.641,-280.762,-504.883,-401.855,0.000
1587071694.741,-731.445,44.434,-494.141,-701.172,0.000
1587071694.745,-653.809,273.438,-514.648,-513.184,0.000
1587071694.749,-488.281,493.164,-501.465,-236.328,0.000
1587071694.753,-536.621,672.363,-489.258,-378.418,0.000
1587071694.757,-721.191,323.242,-543.945,-667.969,0.000
1587071694.761,-687.012,-53.223,-545.410,-574.707,0.000
1587071694.765,-502.441,213.867,-499.512,-278.809,0.000
1587071694.769,-505.371,643.555,-491.699,-314.941,0.000
1587071694.773,-673.828,291.504,-554.688,-611.816,0.000
1587071694.777,-712.891,-385.254,-601.562,-649.902,0.000
1587071694.780,-565.430,-443.848,-571.289,-333.496,0.000
1587071694.784,-481.934,91.309,-566.895,-234.375,0.000
1587071694.788,-624.023,208.984,-619.141,-533.691,0.000
1587071694.792,-731.445,-351.074,-653.809,-706.543,0.000
1587071694.796,-598.633,-213.379,-603.516,-461.914,0.000
1587071694.800,-458.984,759.277,-542.969,-270.020,0.000
1587071694.804,-564.453,922.363,-602.051,-476.562,0.000
1587071694.808,-749.512,-94.238,-663.086,-729.004,0.000
1587071694.812,-675.781,-390.625,-589.844,-559.082,0.000
1587071694.816,-491.211,599.609,-520.508,-287.598,0.000
1587071694.820,-506.348,817.871,-543.945,-409.668,0.000
1587071694.823,-640.137,-186.523,-576.172,-668.945,0.000
1587071694.827,-638.184,-636.230,-533.691,-608.398,0.000
1587071694.831,-484.375,283.691,-469.238,-311.035,0.000
1587071694.835,-442.383,670.898,-510.254,-289.551,0.000
1587071694.839,-604.492,-343.750,-621.094,-582.031,0.000
1587071694.843,-678.223,-835.449,-574.219,-688.477,0.000
1587071694.847,-543.945,66.406,-466.309,-440.918,0.000
1587071694.851,-439.453,497.559,-508.301,-305.664,0.000
1587071694.855,-561.035,137.207,-569.824,-544.922,0.000
1587071694.859,-710.449,-185.547,-568.848,-727.051,0.000
1587071694.862,-599.609,189.941,-509.766,-495.605,0.000
1587071694.866,-431.152,744.629,-495.117,-261.230,0.000
1587071694.870,-515.137,342.285,-563.965,-462.891,0.000
1587071694.874,-690.918,-394.531,-585.938,-747.559,0.000
1587071694.878,-638.184,-291.992,-522.949,-587.891,0.000
1587071694.882,-461.914,137.695,-517.090,-306.152,0.000
1587071694.886,-485.840,259.277,-563.965,-427.246,0.000
1587071694.890,-673.828,160.156,-592.773,-744.629,0.000
1587071694.894,-674.805,-157.715,-577.637,-707.031,0.000
1587071694.898,-508.301,-150.879,-534.668,-385.254,0.000
1587071694.902,-479.492,92.773,-528.320,-361.816,0.000
1587071694.905,-636.719,283.203,-567.871,-661.621,0.000
1587071694.909,-716.309,-11.230,-624.023,-721.191,0.000
1587071694.913,-563.965,-33.691,-598.145,-443.848,0.000
1587071694.917,-447.266,261.230,-605.957,-326.172,0.000
1587071694.921,-558.105,262.207,-627.441,-580.566,0.000
1587071694.925,-694.824,108.887,-630.859,-781.250,0.000
1587071694.929,-611.816,-542.480,-633.301,-547.363,0.000
1587071694.933,-462.891,-308.594,-542.969,-311.523,0.000
1587071694.937,-530.762,779.785,-518.555,-483.398,0.000
1587071694.941,-682.617,271.484,-611.328,-755.859,0.000
1587071694.945,-671.387,-195.312,-577.637,-657.227,0.000
1587071694.948,-513.672,389.648,-520.508,-366.699,0.000
1587071694.952,-507.812,520.020,-578.613,-430.664,0.000
1587071694.956,-680.176,32.715,-626.465,-729.492,0.000
1587071694.960,-702.148,-372.070,-604.492,-709.961,0.000
1587071694.964,-539.551,-68.359,-541.992,-421.875,0.000
1587071694.968,-467.285,377.441,-546.875,-367.188,0.000
1587071694.972,-638.184,-41.992,-613.281,-662.109,0.000
1587071694.976,-753.418,-760.742,-609.863,-781.250,0.000
1587071694.980,-602.539,-187.500,-515.625,-513.672,0.000
1587071694.984,-480.469,869.141,-513.184,-362.793,0.000
1587071694.987,-613.770,459.961,-603.516,-568.359,0.000
1587071694.991,-751.953,-280.273,-622.070,-777.832,0.000
1587071694.995,-645.508,41.992,-545.410,-618.164,0.000
1587071694.999,-475.586,686.035,-502.930,-347.656,0.000
1587071695.003,-511.230,577.637,-560.547,-488.281,0.000
1587071695.007,-691.895,-152.344,-620.605,-770.020,0.000
1587071695.011,-697.266,-342.285,-580.566,-685.059,0.000
1587071695.015,-525.879,133.301,-540.527,-418.457,0.000
1587071695.019,-515.625,248.047,-564.453,-439.941,0.000
1587071695.023,-686.035,-11.230,-592.773,-746.582,0.000
1587071695.027,-723.145,-127.930,-602.051,-767.578,0.000
1587071695.030,-548.828,240.723,-581.543,-433.105,0.000
1587071695.034,-469.727,44.434,-609.863,-330.566,0.000
1587071695.038,-624.023,-364.258,-626.953,-629.395,0.000
1587071695.042,-707.520,-90.820,-615.234,-789.062,0.000
1587071695.046,-590.820,-21.973,-601.074,-534.668,0.000
1587071695.050,-482.910,280.273,-590.332,-373.535,0.000
1587071695.054,-596.191,351.074,-637.695,-589.844,0.000
1587071695.058,-763.184,-333.984,-680.664,-828.613,0.000
1587071695.062,-697.266,-492.188,-663.574,-710.449,0.000
1587071695.066,-516.602,-409.180,-645.996,-455.566,0.000
1587071695.070,-527.832,-156.250,-631.836,-556.641,0.000
1587071695.073,-709.473,-70.312,-659.180,-829.102,0.000
1587071695.077,-723.633,-424.805,-666.016,-758.789,0.000
1587071695.081,-563.965,18.555,-620.117,-469.238,0.000
1587071695.085,-526.367,629.395,-619.141,-454.102,0.000
1587071695.089,-645.508,310.059,-674.316,-739.258,0.000
1587071695.093,-704.102,-479.004,-660.645,-810.059,0.000
1587071695.097,-580.566,-233.398,-561.523,-497.559,0.000
1587071695.101,-491.211,605.957,-562.500,-390.137,0.000
1587071695.105,-615.234,79.590,-648.926,-658.691,0.000
1587071695.109,-717.773,-889.160,-675.293,-804.688,0.000
1587071695.112,-641.113,-593.262,-598.145,-600.586,0.000
1587071695.116,-513.672,551.270,-534.668,-399.414,0.000
1587071695.120,-570.801,546.387,-605.957,-556.641,0.000
1587071695.124,-731.445,-374.512,-655.273,-789.551,0.000
1587071695.128,-688.965,-634.277,-626.953,-661.621,0.000
1587071695.132,-528.320,250.488,-586.426,-429.199,0.000
1587071695.136,-544.922,579.102,-626.465,-531.738,0.000
1587071695.140,-720.703,-198.730,-662.598,-801.758,0.000
1587071695.144,-711.426,-379.883,-628.418,-757.324,0.000
1587071695.148,-530.762,264.160,-600.098,-477.051,0.000
1587071695.152,-482.910,394.531,-624.023,-447.754,0.000
1587071695.155,-629.395,-542.969,-651.367,-721.680,0.000
1587071695.159,-716.797,-717.285,-600.586,-836.914,0.000
1587071695.163,-575.684,252.930,-548.340,-576.172,0.000
1587071695.167,-427.734,560.059,-547.852,-414.551,0.000
1587071695.171,-526.855,116.211,-584.473,-645.508,0.000
1587071695.175,-655.762,-183.105,-575.195,-803.223,0.000
1587071695.179,-522.949,88.867,-526.367,-567.871,0.000
1587071695.183,-377.930,298.340,-531.738,-326.660,0.000
1587071695.187,-467.285,133.301,-557.617,-490.723,0.000
1587071695.191,-628.418,-38.086,-539.551,-760.254,0.000
1587071695.195,-591.309,6.348,-515.137,-618.652,0.000
1587071695.198,-402.832,-150.391,-508.789,-309.082,0.000
1587071695.202,-396.973,-154.785,-500.977,-389.160,0.000
1587071695.206,-590.332,79.102,-522.461,-722.168,0.000
1587071695.210,-605.957,-48.340,-528.320,-705.078,0.000
1587071695.214,-393.066,-359.863,-500.000,-359.375,0.000
1587071695.218,-347.656,-46.875,-479.492,-308.594,0.000
1587071695.222,-533.203,391.602,-513.184,-620.117,0.000
1587071695.226,-600.098,-173.828,-528.320,-717.285,0.000
1587071695.230,-459.961,-117.676,-468.750,-468.262,0.000
1587071695.234,-351.562,585.449,-450.684,-322.754,0.000
1587071695.237,-463.867,576.660,-521.484,-553.711,0.000
1587071695.241,-595.215,-262.695,-586.426,-770.996,0.000
1587071695.245,-503.906,-730.469,-538.086,-540.527,0.000
1587071695.249,-366.211,-113.281,-461.426,-304.199,0.000
1587071695.253,-401.855,130.371,-496.582,-454.590,0.000
1587071695.257,-534.180,-602.051,-562.988,-700.195,0.000
1587071695.261,-540.039,-689.941,-524.414,-604.004,0.000
1587071695.265,-406.250,240.234,-460.938,-345.215,0.000
1587071695.269,-391.602,896.973,-480.957,-412.109,0.000
1587071695.273,-563.477,112.793,-563.477,-678.223,0.000
1587071695.277,-622.070,-833.496,-562.988,-688.965,0.000
1587071695.280,-498.047,-6.836,-447.754,-437.500,0.000
1587071695.284,-393.066,728.027,-449.219,-360.840,0.000
1587071695.288,-506.348,90.820,-529.297,-614.746,0.000
1587071695.292,-623.047,-740.234,-540.527,-740.234,0.000
1587071695.296,-505.859,-312.012,-461.426,-509.766,0.000
1587071695.300,-366.211,621.582,-424.316,-328.613,0.000
1587071695.304,-423.828,-63.477,-496.582,-488.770,0.000
1587071695.308,-548.340,-900.391,-512.207,-687.988,0.000
1587071695.312,-487.305,-102.051,-419.434,-541.504,0.000
1587071695.316,-325.195,560.059,-406.250,-272.461,0.000
1587071695.320,-373.047,462.402,-447.754,-384.766,0.000
1587071695.323,-567.871,-1.953,-463.379,-674.316,0.000
1587071695.327,-553.711,-75.684,-429.688,-596.680,0.000
1587071695.331,-346.680,324.219,-391.602,-272.949,0.000
1587071695.335,-310.059,403.320,-421.875,-309.082,0.000
1587071695.339,-483.398,-143.066,-479.980,-614.258,0.000
1587071695.343,-518.555,-606.445,-462.402,-623.047,0.000
1587071695.347,-345.215,-394.043,-416.016,-340.332,0.000
1587071695.351,-258.301,131.348,-403.320,-231.934,0.000
1587071695.355,-408.691,182.617,-438.477,-525.391,0.000
1587071695.359,-524.902,-356.934,-477.539,-693.359,0.000
1587071695.362,-420.410,-493.164,-456.543,-445.312,0.000
1587071695.366,-291.992,-235.840,-427.734,-254.883,0.000
1587071695.370,-386.230,175.293,-431.152,-461.426,0.000
1587071695.374,-547.852,10.254,-478.027,-713.379,0.000
1587071695.378,-480.469,-358.398,-449.219,-552.734,0.000
1587071695.382,-319.824,79.590,-413.574,-284.180,0.000
1587071695.386,-340.820,263.184,-479.980,-384.277,0.000
1587071695.390,-502.930,-400.391,-542.480,-667.480,0.000
1587071695.394,-507.324,-988.770,-547.852,-618.652,0.000
1587071695.398,-342.773,-597.168,-473.145,-333.008,0.000
1587071695.402,-300.293,435.547,-436.523,-316.895,0.000
1587071695.405,-433.594,279.297,-510.254,-563.477,0.000
1587071695.409,-490.234,-392.090,-492.676,-620.605,0.000
1587071695.413,-353.516,-30.762,-409.180,-371.582,0.000
1587071695.417,-234.375,559.570,-416.992,-250.488,0.000
1587071695.421,-334.473,55.664,-467.285,-450.684,0.000
1587071695.425,-482.910,-589.844,-458.008,-629.395,0.000
1587071695.429,-354.004,-308.105,-439.941,-436.035,0.000
1587071695.433,-201.172,128.418,-437.500,-195.801,0.000
1587071695.437,-307.617,-104.980,-464.844,-367.676,0.000
1587071695.441,-489.258,-671.387,-483.398,-646.973,0.000
1587071695.445,-451.172,-375.488,-424.805,-527.832,0.000
1587071695.448,-260.254,514.160,-389.648,-240.723,0.000
1587071695.452,-248.535,414.551,-462.402,-289.551,0.000
1587071695.456,-438.965,-705.078,-508.301,-579.590,0.000
1587071695.460,-486.816,-605.957,-424.316,-594.238,0.000
1587071695.464,-298.828,188.965,-392.578,-282.715,0.000
1587071695.468,-221.191,259.766,-417.969,-222.168,0.000
1587071695.472,-384.277,-110.840,-477.051,-529.297,0.000
1587071695.476,-471.680,-508.789,-487.793,-646.973,0.000
1587071695.480,-344.238,-323.730,-430.176,-387.695,0.000
1587071695.484,-241.211,-235.840,-438.477,-225.586,0.000
1587071695.487,-347.168,-386.230,-463.867,-465.820,0.000
1587071695.491,-472.168,-262.695,-453.613,-661.621,0.000
1587071695.495,-357.910,-132.324,-425.781,-412.598,0.000
1587071695.499,-187.500,-220.703,-416.992,-148.438,0.000
1587071695.503,-257.812,-171.875,-422.363,-305.176,0.000
1587071695.507,-443.359,-70.801,-438.965,-587.891,0.000
1587071695.511,-410.645,-378.418,-443.359,-488.770,0.000
1587071695.515,-233.398,-65.918,-402.832,-217.773,0.000
1587071695.519,-253.418,401.855,-416.016,-279.785,0.000
1587071695.523,-437.500,46.387,-496.094,-562.012,0.000
1587071695.527,-450.684,-571.289,-487.793,-560.547,0.000
1587071695.530,-267.578,-679.688,-421.387,-277.344,0.000
1587071695.534,-192.871,-231.934,-399.414,-214.844,0.000
1587071695.538,-342.285,-46.875,-423.828,-477.051,0.000
1587071695.542,-430.176,-528.320,-433.594,-588.867,0.000
1587071695.546,-291.504,-277.344,-384.277,-325.684,0.000
1587071695.550,-161.133,501.953,-370.117,-162.109,0.000
1587071695.554,-258.789,378.418,-427.246,-379.883,0.000
1587071695.558,-427.246,-418.457,-469.727,-613.281,0.000
1587071695.562,-354.492,-443.359,-422.363,-441.406,0.000
1587071695.566,-176.270,448.242,-368.164,-164.551,0.000
1587071695.570,-195.312,514.160,-413.086,-264.160,0.000
1587071695.573,-365.234,-487.793,-471.191,-548.340,0.000
1587071695.577,-354.004,-854.980,-415.039,-482.422,0.000
1587071695.581,-184.570,41.992,-352.051,-183.105,0.000
1587071695.585,-175.293,477.051,-408.203,-229.492,0.000
1587071695.589,-322.266,-390.625,-479.980,-498.047,0.000
1587071695.593,-364.258,-998.535,-408.691,-497.559,0.000
1587071695.597,-228.516,-269.531,-307.129,-248.047,0.000
1587071695.601,-122.559,405.273,-325.684,-160.645,0.000
1587071695.605,-242.676,-8.301,-376.465,-408.203,0.000
1587071695.609,-372.559,-543.457,-377.441,-581.543,0.000
1587071695.612,-255.859,-184.570,-333.496,-352.539,0.000
1587071695.616,-114.746,421.387,-328.613,-150.391,0.000
1587071695.620,-193.359,-68.359,-384.766,-330.078,0.000
1587071695.624,-359.863,-880.371,-412.598,-570.312,0.000
1587071695.628,-304.688,-750.488,-380.371,-441.895,0.000
1587071695.632,-126.953,-159.180,-344.727,-155.762,0.000
1587071695.636,-145.996,-297.852,-374.023,-239.258,0.000
1587071695.640,-329.102,-423.340,-409.668,-552.246,0.000
1587071695.644,-348.145,-228.516,-422.852,-489.746,0.000
1587071695.648,-165.039,-54.199,-411.621,-174.805,0.000
1587071695.652,-105.469,29.297,-431.152,-163.086,0.000
1587071695.655,-275.391,-186.523,-459.473,-483.398,0.000
1587071695.659,-351.074,-484.375,-453.613,-545.410,0.000
1587071695.663,-172.852,-482.910,-400.879,-241.211,0.000
1587071695.667,-80.078,-175.293,-373.047,-126.953,0.000
1587071695.671,-230.957,-137.695,-414.062,-382.812,0.000
1587071695.675,-380.859,-293.945,-436.523,-572.266,0.000
1587071695.679,-251.465,-741.211,-448.730,-328.125,0.000
1587071695.683,-101.562,-521.973,-392.090,-125.488,0.000
1587071695.687,-209.961,300.293,-385.742,-329.590,0.000
1587071695.691,-358.398,-298.828,-471.191,-550.293,0.000
1587071695.695,-301.758,-666.016,-443.359,-427.246,0.000
1587071695.698,-135.254,-27.832,-384.277,-170.410,0.000
1587071695.702,-136.230,340.332,-408.691,-234.375,0.000
1587071695.706,-304.688,-302.734,-456.543,-508.789,0.000
1587071695.710,-330.566,-857.422,-425.781,-481.934,0.000
1587071695.714,-160.156,-435.547,-349.609,-184.570,0.000
1587071695.718,-109.863,33.203,-352.051,-153.809,0.000
1587071695.722,-278.809,-359.375,-408.203,-445.312,0.000
1587071695.726,-383.301,-812.012,-397.949,-535.156,0.000
1587071695.730,-254.395,-141.113,-321.289,-261.719,0.000
1587071695.734,-145.508,708.984,-331.543,-138.184,0.000
1587071695.737,-225.586,137.207,-430.176,-337.891,0.000
1587071695.741,-349.609,-838.379,-444.336,-521.484,0.000
1587071695.745,-304.199,-400.879,-353.516,-360.840,0.000
1587071695.749,-145.020,392.090,-341.797,-127.930,0.000
1587071695.753,-194.824,228.027,-408.691,-276.855,0.000
1587071695.757,-358.887,-444.336,-437.012,-519.531,0.000
1587071695.761,-322.266,-656.738,-406.738,-424.805,0.000
1587071695.765,-162.598,-220.215,-364.258,-183.594,0.000
1587071695.769,-142.090,-329.102,-402.344,-189.941,0.000
1587071695.773,-308.594,-864.746,-453.613,-478.027,0.000
1587071695.777,-371.094,-505.859,-430.664,-518.555,0.000
1587071695.780,-207.031,36.133,-397.949,-191.406,0.000
1587071695.784,-117.188,224.609,-396.973,-117.676,0.000
1587071695.788,-262.695,-50.781,-425.293,-397.949,0.000
1587071695.792,-362.305,-333.496,-437.500,-527.344,0.000
1587071695.796,-229.004,-311.035,-420.410,-305.664,0.000
1587071695.800,-111.328,185.547,-402.832,-127.930,0.000
1587071695.804,-235.352,121.582,-454.102,-332.031,0.000
1587071695.808,-375.000,-714.355,-493.164,-565.430,0.000
1587071695.812,-287.598,-715.332,-454.590,-381.348,0.000
1587071695.816,-121.094,-550.293,-410.645,-105.957,0.000
1587071695.820,-166.992,-82.031,-378.906,-229.004,0.000
1587071695.823,-340.332,39.551,-432.129,-508.301,0.000
1587071695.827,-312.988,-706.543,-452.637,-396.973,0.000
1587071695.831,-142.578,-386.230,-374.512,-113.281,0.000
1587071695.835,-139.160,288.574,-376.953,-165.039,0.000
1587071695.839,-316.895,-43.945,-446.289,-483.887,0.000
1587071695.843,-358.398,-661.133,-429.688,-529.297,0.000
1587071695.847,-198.242,-319.336,-361.816,-219.238,0.000
1587071695.851,-110.840,511.230,-354.004,-139.648,0.000
1587071695.855,-239.258,123.535,-414.551,-401.855,0.000
1587071695.859,-328.125,-818.848,-468.750,-533.691,0.000
1587071695.862,-241.211,-707.031,-398.926,-309.570,0.000
1587071695.866,-138.672,385.742,-334.473,-117.188,0.000
1587071695.870,-195.801,494.141,-423.340,-311.035,0.000
1587071695.874,-348.145,-288.086,-454.102,-557.129,0.000
1587071695.878,-279.297,-259.277,-382.812,-385.254,0.000
1587071695.882,-122.559,422.852,-351.562,-115.234,0.000
1587071695.886,-170.898,272.461,-400.391,-243.652,0.000
1587071695.890,-352.051,-406.738,-425.781,-538.086,0.000
1587071695.894,-358.887,-373.535,-387.695,-474.121,0.000
1587071695.898,-171.387,209.473,-347.168,-177.246,0.000
1587071695.902,-144.531,265.137,-377.930,-168.945,0.000
1587071695.905,-312.500,-540.039,-433.594,-454.590,0.000
1587071695.909,-382.324,-875.488,-396.973,-513.184,0.000
1587071695.913,-228.027,-93.262,-328.125,-241.699,0.000
1587071695.917,-123.047,276.855,-362.305,-125.488,0.000
1587071695.921,-260.254,-551.758,-416.504,-355.469,0.000
1587071695.925,-407.227,-728.027,-373.047,-542.480,0.000
1587071695.929,-304.688,-154.785,-336.426,-331.055,0.000
1587071695.933,-151.367,170.898,-325.684,-114.746,0.000
1587071695.937,-223.145,250.977,-332.520,-309.570,0.000
1587071695.941,-396.973,-95.215,-358.887,-592.773,0.000
1587071695.945,-330.078,-396.484,-341.309,-450.195,0.000
1587071695.948,-141.113,-370.605,-309.082,-141.113,0.000
1587071695.952,-180.176,-114.746,-317.383,-259.766,0.000
1587071695.956,-386.719,-32.715,-368.164,-569.824,0.000
1587071695.960,-396.484,-337.402,-391.113,-517.090,0.000
1587071695.964,-207.520,-406.250,-357.422,-195.312,0.000
1587071695.968,-163.574,35.156,-350.098,-168.457,0.000
1587071695.972,-318.359,178.711,-404.785,-481.934,0.000
1587071695.976,-398.438,-392.090,-423.340,-557.129,0.000
1587071695.980,-247.070,-321.289,-357.910,-280.273,0.000
1587071695.984,-146.973,407.227,-324.707,-132.812,0.000
1587071695.987,-270.508,539.062,-378.418,-378.906,0.000
1587071695.991,-394.531,-232.910,-440.918,-592.285,0.000
1587071695.995,-296.387,-698.242,-407.227,-365.234,0.000
1587071695.999,-130.859,-209.961,-346.680,-119.629,0.000
1587071696.003,-208.496,-5.859,-375.000,-285.156,0.000
1587071696.007,-402.344,-625.977,-408.691,-553.223,0.000
1587071696.011,-346.680,-917.480,-363.770,-446.777,0.000
1587071696.015,-170.898,-122.070,-270.996,-178.223,0.000
1587071696.019,-192.383,469.727,-303.711,-231.445,0.000
1587071696.023,-369.629,-222.656,-397.461,-529.785,0.000
1587071696.027,-390.137,-680.664,-349.609,-532.715,0.000
1587071696.030,-230.469,44.922,-245.117,-219.238,0.000
1587071696.034,-161.133,596.191,-264.648,-185.059,0.000
1587071696.038,-298.340,-160.156,-341.309,-459.473,0.000
1587071696.042,-403.809,-979.980,-332.520,-562.012,0.000
1587071696.046,-277.344,-518.555,-257.324,-336.426,0.000
1587071696.050,-155.762,261.230,-203.613,-178.223,0.000
1587071696.054,-258.789,-235.352,-239.746,-364.258,0.000
1587071696.058,-426.270,-993.652,-219.727,-556.641,0.000
1587071696.062,-352.539,-613.770,-105.957,-398.438,0.000
1587071696.066,-179.688,110.352,-81.543,-150.879,0.000
1587071696.070,-222.656,221.680,-125.488,-267.578,0.000
1587071696.073,-382.324,-234.375,-146.973,-538.086,0.000
1587071696.077,-372.559,-288.086,-119.629,-447.266,0.000
1587071696.081,-204.590,94.238,-59.082,-174.805,0.000
1587071696.085,-181.152,223.633,-70.312,-195.801,0.000
1587071696.089,-351.562,-371.582,-90.332,-465.332,0.000
1587071696.093,-404.785,-790.527,-33.203,-494.141,0.000
1587071696.097,-269.043,-499.512,26.855,-229.004,0.000
1587071696.101,-186.523,-453.125,47.852,-139.160,0.000
1587071696.105,-314.941,-367.676,57.129,-417.969,0.000
1587071696.109,-427.734,-251.465,72.754,-574.707,0.000
1587071696.112,-309.570,-296.875,118.652,-334.961,0.000
1587071696.116,-182.617,142.578,151.367,-123.535,0.000
1587071696.120,-254.395,205.566,125.488,-291.504,0.000
1587071696.124,-410.156,-213.867,100.098,-550.293,0.000
1587071696.128,-385.254,-393.555,132.812,-410.645,0.000
1587071696.132,-240.234,-163.086,180.176,-160.645,0.000
1587071696.136,-218.262,-20.996,167.480,-252.930,0.000
1587071696.140,-250.488,90.332,168.945,-385.742,0.000
1587071696.144,-195.312,-148.438,155.273,-297.363,0.000
1587071696.148,-242.188,-387.207,169.922,-240.723,0.000
1587071696.152,-341.309,189.453,200.195,-361.816,0.000
1587071696.155,-301.758,196.777,175.293,-468.750,0.000
1587071696.159,-226.562,211.914,198.730,-384.766,0.000
1587071696.163,-245.117,503.418,212.402,-267.578,0.000
1587071696.167,-323.242,430.176,193.848,-309.570,0.000
1587071696.171,-324.219,205.566,205.566,-404.297,0.000
1587071696.175,-236.328,172.852,214.844,-353.516,0.000
1587071696.179,-231.445,209.473,197.266,-231.445,0.000
1587071696.183,-330.566,-78.125,175.781,-237.305,0.000
1587071696.187,-348.633,-286.621,174.805,-342.285,0.000
1587071696.191,-267.578,-648.438,179.199,-374.512,0.000
1587071696.195,-228.516,-188.477,209.961,-315.430,0.000
1587071696.198,-295.898,599.609,174.316,-267.578,0.000
1587071696.202,-326.660,74.707,107.422,-329.590,0.000
1587071696.206,-271.484,-270.996,120.117,-418.945,0.000
1587071696.210,-231.934,354.004,149.414,-323.730,0.000
1587071696.214,-268.555,590.332,123.535,-236.816,0.000
1587071696.218,-331.543,-122.559,81.543,-299.805,0.000
1587071696.222,-329.590,-390.625,83.496,-398.926,0.000
1587071696.226,-261.719,200.195,78.613,-358.398,0.000
1587071696.230,-250.000,161.621,27.832,-247.070,0.000
1587071696.234,-315.918,-596.191,-31.738,-273.438,0.000
1587071696.237,-355.957,-800.293,-0.977,-380.371,0.000
1587071696.241,-307.129,204.590,61.035,-395.996,0.000
1587071696.245,-272.461,488.770,-3.418,-264.160,0.000
1587071696.249,-347.656,-88.867,-33.691,-255.371,0.000
1587071696.253,-374.512,-319.824,-3.906,-383.301,0.000
1587071696.257,-305.664,208.008,20.996,-404.297,0.000
1587071696.261,-240.723,435.547,-16.113,-257.324,0.000
1587071696.265,-293.945,17.090,-68.359,-208.496,0.000
1587071696.269,-358.887,-17.578,-53.223,-330.566,0.000
1587071696.273,-324.219,153.809,-68.359,-419.922,0.000
1587071696.277,-261.719,114.746,-90.820,-324.707,0.000
1587071696.280,-302.246,-330.566,-96.191,-227.051,0.000
1587071696.284,-395.508,-548.340,-74.219,-318.359,0.000
1587071696.288,-369.141,-104.004,-45.410,-425.293,0.000
1587071696.292,-270.020,129.395,-68.848,-357.910,0.000
1587071696.296,-249.512,-20.996,-91.309,-225.098,0.000
1587071696.300,-363.281,66.895,-117.676,-268.555,0.000
1587071696.304,-400.391,166.504,-135.254,-384.277,0.000
1587071696.308,-273.926,-0.488,-151.855,-362.305,0.000
1587071696.312,-233.887,-256.836,-161.133,-257.812,0.000
1587071696.316,-323.242,8.789,-140.137,-268.066,0.000
1587071696.320,-368.164,45.898,-185.547,-389.648,0.000
1587071696.323,-308.594,-542.969,-236.328,-424.316,0.000
1587071696.327,-253.906,-590.332,-222.168,-318.848,0.000
1587071696.331,-332.520,44.922,-211.426,-291.016,0.000
1587071696.335,-406.738,-84.473,-255.859,-358.398,0.000
1587071696.339,-345.215,-315.430,-248.535,-421.875,0.000
1587071696.343,-271.484,44.922,-231.445,-359.375,0.000
1587071696.347,-294.922,285.156,-273.926,-250.000,0.000
1587071696.351,-370.117,-269.531,-310.547,-285.645,0.000
1587071696.355,-366.699,-502.441,-282.715,-401.855,0.000
1587071696.359,-310.059,18.066,-242.188,-407.227,0.000
1587071696.362,-306.641,345.703,-245.117,-306.152,0.000
1587071696.366,-377.441,-28.809,-272.461,-301.270,0.000
1587071696.370,-393.555,-548.340,-271.973,-392.090,0.000
1587071696.374,-317.871,-362.305,-252.930,-387.695,0.000
1587071696.378,-292.969,51.270,-259.277,-277.832,0.000
1587071696.382,-368.164,-198.730,-301.758,-267.578,0.000
1587071696.386,-408.203,-638.184,-312.500,-356.445,0.000
1587071696.390,-339.355,-126.953,-264.160,-414.062,0.000
1587071696.394,-282.715,457.031,-272.949,-341.797,0.000
1587071696.398,-319.824,-22.949,-327.148,-229.004,0.000
1587071696.402,-395.996,-560.059,-328.125,-325.684,0.000
1587071696.405,-369.141,-86.914,-282.715,-446.777,0.000
1587071696.409,-271.484,304.199,-272.949,-357.422,0.000
1587071696.413,-272.949,-216.309,-304.688,-214.844,0.000
1587071696.417,-343.262,-993.164,-298.340,-254.883,0.000
1587071696.421,-372.559,-583.008,-209.961,-414.062,0.000
1587071696.425,-313.477,272.461,-200.195,-403.809,0.000
1587071696.429,-272.949,-218.262,-248.535,-238.770,0.000
1587071696.433,-364.746,-760.254,-234.375,-230.469,0.000
1587071696.437,-413.086,-268.066,-218.750,-376.465,0.000
1587071696.441,-333.984,-17.578,-252.441,-414.062,0.000
1587071696.445,-297.363,146.973,-267.578,-303.223,0.000
1587071696.448,-371.582,-18.066,-290.527,-265.137,0.000
1587071696.452,-414.551,-83.008,-299.316,-359.375,0.000
1587071696.456,-358.398,48.828,-292.969,-413.574,0.000
1587071696.460,-290.039,157.715,-291.016,-311.523,0.000
1587071696.464,-332.031,-100.586,-303.223,-245.117,0.000
1587071696.468,-433.105,-557.617,-308.594,-327.637,0.000
1587071696.472,-394.531,-536.133,-276.367,-415.039,0.000
1587071696.476,-304.688,-198.242,-248.535,-368.164,0.000
1587071696.480,-348.633,250.977,-278.809,-271.484,0.000
1587071696.484,-447.754,198.242,-333.496,-310.547,0.000
1587071696.487,-437.012,-354.492,-351.562,-389.648,0.000
1587071696.491,-345.215,-292.480,-306.152,-367.188,0.000
1587071696.495,-303.223,242.676,-288.086,-265.625,0.000
1587071696.499,-408.203,169.434,-333.984,-255.859,0.000
1587071696.503,-474.121,-491.211,-381.836,-374.512,0.000
1587071696.507,-395.020,-686.523,-344.727,-427.246,0.000
1587071696.511,-351.562,-61.035,-275.879,-338.867,0.000
1587071696.515,-401.855,-205.078,-282.715,-280.273,0.000
1587071696.519,-443.848,-847.656,-310.547,-345.703,0.000
1587071696.523,-410.645,-613.281,-262.695,-411.133,0.000
1587071696.527,-354.492,302.246,-207.520,-343.750,0.000
1587071696.530,-373.047,87.402,-247.070,-218.262,0.000
1587071696.534,-449.219,-320.312,-208.496,-285.156,0.000
1587071696.538,-429.199,-27.344,-170.410,-429.199,0.000
1587071696.542,-337.402,373.047,-185.059,-387.207,0.000
1587071696.546,-325.684,260.742,-189.453,-235.352,0.000
1587071696.550,-433.594,-194.336,-184.570,-253.906,0.000
1587071696.554,-467.285,-198.242,-176.270,-402.832,0.000
1587071696.558,-361.328,-26.855,-159.180,-396.973,0.000
1587071696.562,-307.129,-155.273,-114.746,-267.090,0.000
1587071696.566,-398.926,-503.906,-86.426,-281.738,0.000
1587071696.570,-464.844,-326.660,-60.547,-397.949,0.000
1587071696.573,-393.555,254.883,-34.180,-425.781,0.000
1587071696.577,-312.988,219.727,-67.871,-321.289,0.000
1587071696.581,-372.070,-148.438,-103.516,-264.648,0.000
1587071696.585,-456.055,-228.516,-86.426,-339.355,0.000
1587071696.589,-429.199,-54.688,-80.566,-412.109,0.000
1587071696.593,-390.625,-64.453,-98.145,-379.395,0.000
1587071696.597,-422.852,-482.422,-70.801,-296.387,0.000
1587071696.601,-499.023,-361.816,-52.734,-363.770,0.000
1587071696.605,-473.145,-278.320,-61.035,-438.965,0.000
1587071696.609,-356.445,-517.090,-66.895,-375.977,0.000
1587071696.612,-360.352,-554.688,-62.988,-277.832,0.000
1587071696.616,-475.586,-53.711,-21.973,-322.266,0.000
1587071696.620,-492.676,-52.734,-43.945,-429.199,0.000
1587071696.624,-407.715,-72.266,-47.363,-445.312,0.000
1587071696.628,-345.703,234.863,-34.180,-330.078,0.000
1587071696.632,-438.965,292.480,-54.688,-306.641,0.000
1587071696.636,-506.836,-173.340,-65.918,-415.039,0.000
1587071696.640,-426.270,-169.922,-12.695,-453.125,0.000
1587071696.644,-357.422,226.562,0.000,-343.750,0.000
1587071696.648,-387.207,-64.941,-35.156,-264.648,0.000
1587071696.652,-466.309,-543.945,-59.082,-358.887,0.000
1587071696.655,-438.477,-834.961,-41.016,-435.547,0.000
1587071696.659,-351.562,-340.820,7.812,-368.652,0.000
1587071696.663,-395.996,377.930,-6.836,-271.484,0.000
1587071696.667,-501.465,-62.988,-85.449,-314.453,0.000
1587071696.671,-481.445,-555.176,-93.262,-422.363,0.000
1587071696.675,-375.000,184.570,-17.578,-394.531,0.000
1587071696.679,-365.723,625.000,-45.410,-269.043,0.000
1587071696.683,-460.449,-209.961,-108.887,-281.738,0.000
1587071696.687,-484.375,-757.812,-70.801,-397.461,0.000
1587071696.691,-411.621,65.430,-4.883,-420.410,0.000
1587071696.695,-345.703,543.945,-30.762,-288.574,0.000
1587071696.698,-413.086,-285.156,-84.473,-238.770,0.000
1587071696.702,-480.957,-960.938,-56.641,-349.121,0.000
1587071696.706,-432.617,-440.430,-6.348,-440.430,0.000
1587071696.710,-371.094,318.848,-8.789,-341.797,0.000
1587071696.714,-399.902,-233.887,-58.105,-213.379,0.000
1587071696.718,-471.680,-805.664,-44.922,-314.941,0.000
1587071696.722,-451.660,-80.566,16.113,-431.641,0.000
1587071696.726,-352.539,357.910,-6.836,-338.867,0.000
1587071696.730,-364.258,192.383,-31.738,-243.652,0.000
1587071696.734,-485.840,-24.902,-15.137,-300.293,0.000
1587071696.737,-504.395,90.820,-32.715,-418.457,0.000
1587071696.741,-420.898,314.941,-45.410,-421.387,0.000
1587071696.745,-405.762,140.625,-53.711,-303.223,0.000
1587071696.749,-510.254,-236.816,-83.008,-306.641,0.000
1587071696.753,-558.105,-306.152,-81.055,-423.340,0.000
1587071696.757,-478.516,-120.605,-78.125,-450.684,0.000
1587071696.761,-446.777,-362.793,-87.891,-340.820,0.000
1587071696.765,-548.828,-245.117,-50.781,-353.516,0.000
1587071696.769,-636.719,101.074,-35.156,-476.074,0.000
1587071696.773,-595.215,-20.020,-34.180,-536.133,0.000
1587071696.777,-541.504,225.098,-18.555,-489.258,0.000
1587071696.780,-627.930,511.230,-10.254,-454.590,0.000
1587071696.784,-712.891,255.371,-16.113,-522.949,0.000
1587071696.788,-686.035,-103.027,2.441,-606.934,0.000
1587071696.792,-609.863,-119.629,-29.785,-541.504,0.000
1587071696.796,-599.121,173.828,-85.449,-404.785,0.000
1587071696.800,-666.992,270.020,-68.359,-415.527,0.000
1587071696.804,-652.344,-420.410,-85.938,-504.883,0.000
1587071696.808,-555.664,-537.109,-50.293,-516.113,0.000
1587071696.812,-529.297,482.422,3.418,-400.391,0.000
1587071696.816,-578.125,286.621,-60.547,-330.078,0.000
1587071696.820,-597.168,-354.004,-67.871,-408.203,0.000
1587071696.823,-519.531,-47.363,-11.230,-438.965,0.000
1587071696.827,-426.758,541.992,-1.465,-324.707,0.000
1587071696.831,-437.500,321.289,-33.691,-233.398,0.000
1587071696.835,-494.629,-282.227,-56.641,-282.715,0.000
1587071696.839,-429.688,-282.715,-31.250,-331.055,0.000
1587071696.843,-321.777,157.715,-2.441,-225.098,0.000
1587071696.847,-334.473,89.844,-42.969,-139.648,0.000
1587071696.851,-397.949,-333.984,-47.363,-177.734,0.000
1587071696.855,-378.906,55.176,12.695,-250.977,0.000
1587071696.859,-287.109,500.000,0.000,-202.637,0.000
1587071696.862,-255.371,296.387,-35.645,-56.152,0.000
1587071696.866,-338.379,-555.176,-58.594,-75.684,0.000
1587071696.870,-365.723,-418.945,-16.113,-229.980,0.000
1587071696.874,-275.879,506.836,5.859,-193.848,0.000
1587071696.878,-230.957,354.980,-18.555,-54.688,0.000
1587071696.882,-287.598,-63.965,-36.133,-63.477,0.000
1587071696.886,-334.473,-239.258,-45.410,-146.484,0.000
1587071696.890,-267.090,37.109,-28.320,-179.199,0.000
1587071696.894,-173.340,-3.906,-52.246,-70.801,0.000
1587071696.898,-237.305,-333.008,-41.016,-5.371,0.000
1587071696.902,-350.098,199.219,11.719,-117.676,0.000
1587071696.905,-312.988,357.422,-10.742,-178.223,0.000
1587071696.909,-226.562,358.398,-10.742,-100.098,0.000
1587071696.913,-248.047,379.883,-26.367,-18.555,0.000
1587071696.917,-335.938,251.465,-54.688,-77.637,0.000
1587071696.921,-321.289,67.871,-38.086,-165.527,0.000
1587071696.925,-236.816,196.289,-5.859,-149.902,0.000
1587071696.929,-234.863,483.887,-17.578,-56.641,0.000
1587071696.933,-325.684,50.293,-61.035,-50.293,0.000
1587071696.937,-349.121,-448.730,-45.898,-159.668,0.000
1587071696.941,-244.141,-527.344,-23.438,-167.480,0.000
1587071696.945,-206.055,-33.203,-15.137,-59.082,0.000
1587071696.948,-297.363,282.715,-40.039,-34.668,0.000
1587071696.952,-323.730,-319.824,-74.219,-102.051,0.000
1587071696.956,-242.676,-817.383,-45.410,-174.316,0.000
1587071696.960,-199.707,53.711,23.438,-111.816,0.000
1587071696.964,-249.512,541.016,-18.066,-18.555,0.000
1587071696.968,-320.312,-143.066,-72.266,-97.656,0.000
1587071696.972,-292.480,-227.539,-32.715,-197.266,0.000
1587071696.976,-218.262,315.430,9.766,-148.438,0.000
1587071696.980,-230.469,293.457,-7.812,-32.715,0.000
1587071696.984,-288.574,-581.543,-43.457,-67.871,0.000
1587071696.987,-286.133,-677.246,3.418,-171.387,0.000
1587071696.991,-236.328,456.543,60.059,-172.363,0.000
1587071696.995,-216.309,598.145,-1.465,-62.012,0.000
1587071696.999,-316.406,-72.754,-31.250,-62.500,0.000
1587071697.003,-368.164,-112.305,7.812,-198.242,0.000
1587071697.007,-275.391,346.680,22.949,-201.172,0.000
1587071697.011,-201.172,423.828,-8.301,-41.016,0.000
1587071697.015,-250.000,-19.531,-24.902,-0.977,0.000
1587071697.019,-320.312,-191.406,-23.438,-127.441,0.000
1587071697.023,-277.832,-9.766,-27.832,-208.496,0.000
1587071697.027,-211.914,149.902,-19.531,-123.047,0.000
1587071697.030,-236.328,-211.426,-40.039,-34.180,0.000
1587071697.034,-308.594,-544.922,-26.367,-103.516,0.000
1587071697.038,-317.871,-171.387,6.348,-211.914,0.000
1587071697.042,-223.145,-43.457,-25.391,-167.969,0.000
1587071697.046,-207.031,-228.516,-59.082,-32.227,0.000
1587071697.050,-317.383,-227.539,-61.035,-57.129,0.000
1587071697.054,-331.543,-323.730,-59.082,-180.176,0.000
1587071697.058,-226.562,-327.637,-60.547,-146.973,0.000
1587071697.062,-200.195,-573.242,-8.789,-8.301,0.000
1587071697.066,-267.090,-254.883,43.945,-37.109,0.000
1587071697.070,-288.574,-104.492,24.414,-138.672,0.000
1587071697.073,-244.629,-588.379,27.832,-150.391,0.000
1587071697.077,-223.633,-325.195,42.969,-48.828,0.000
1587071697.081,-303.711,145.020,16.602,-8.789,0.000
1587071697.085,-347.656,101.562,-11.230,-122.559,0.000
1587071697.089,-270.020,-520.996,-43.457,-147.461,0.000
1587071697.093,-209.473,-754.395,-16.602,-91.797,0.000
1587071697.097,-260.254,85.449,33.691,-56.152,0.000
1587071697.101,-303.223,22.461,-21.484,-82.031,0.000
1587071697.105,-278.809,-467.773,-10.742,-178.223,0.000
1587071697.109,-206.543,-71.289,23.438,-145.508,0.000
1587071697.112,-208.496,137.695,-6.348,-23.926,0.000
1587071697.116,-284.668,-365.723,-21.484,-43.945,0.000
1587071697.120,-298.828,-669.434,-7.324,-158.203,0.000
1587071697.124,-230.957,-459.473,10.742,-187.500,0.000
1587071697.128,-191.406,-30.762,8.789,-70.312,0.000
1587071697.132,-264.160,-116.211,-25.879,-50.293,0.000
1587071697.136,-312.988,-730.469,-43.945,-170.898,0.000
1587071697.140,-258.789,-302.246,5.859,-229.980,0.000
1587071697.144,-181.152,513.184,8.789,-129.883,0.000
1587071697.148,-235.840,102.051,-30.762,-37.109,0.000
1587071697.152,-312.012,-344.238,-38.086,-124.023,0.000
1587071697.155,-273.926,43.945,-20.508,-223.633,0.000
1587071697.159,-194.336,395.020,-37.109,-153.809,0.000
1587071697.163,-186.523,134.766,-67.871,-36.621,0.000
1587071697.167,-259.766,-488.281,-69.824,-79.590,0.000
1587071697.171,-264.160,-514.160,-33.203,-212.402,0.000
1587071697.175,-185.547,-1.465,-30.273,-164.551,0.000
1587071697.179,-155.762,-286.133,-88.867,-20.020,0.000
1587071697.183,-237.793,-724.121,-81.055,-39.062,0.000
1587071697.187,-292.480,-118.652,-24.414,-172.852,0.000
1587071697.191,-211.426,201.660,-33.203,-177.246,0.000
1587071697.195,-152.832,293.945,-33.691,-64.453,0.000
1587071697.198,-221.191,145.508,-29.297,-34.668,0.000
1587071697.202,-287.598,30.273,-14.648,-145.508,0.000
1587071697.206,-223.633,132.324,7.324,-207.031,0.000
1587071697.210,-153.809,185.059,-8.301,-84.961,0.000
1587071697.214,-210.449,-48.340,-57.129,-16.602,0.000
1587071697.218,-278.809,-410.645,-83.984,-104.492,0.000
1587071697.222,-230.957,-345.703,-81.055,-193.848,0.000
1587071697.226,-156.738,-281.738,-95.703,-104.492,0.000
1587071697.230,-207.031,-186.035,-132.324,-39.551,0.000
1587071697.234,-290.039,89.355,-174.805,-139.648,0.000
1587071697.237,-251.953,-109.375,-237.305,-213.867,0.000
1587071697.241,-179.688,-189.453,-266.113,-159.668,0.000
1587071697.245,-203.125,261.230,-265.137,-54.688,0.000
1587071697.249,-273.438,180.176,-297.363,-57.129,0.000
1587071697.253,-276.367,-279.785,-307.129,-164.551,0.000
1587071697.257,-184.082,-199.219,-285.645,-193.848,0.000
1587071697.261,-134.766,14.160,-282.227,-63.477,0.000
1587071697.265,-203.125,-303.223,-292.969,-22.461,0.000
1587071697.269,-273.438,-827.637,-325.684,-129.883,0.000
1587071697.273,-217.773,-729.004,-282.715,-198.242,0.000
1587071697.277,-146.484,99.121,-248.047,-134.277,0.000
1587071697.280,-189.941,-126.953,-312.012,-43.457,0.000
1587071697.284,-262.207,-871.582,-317.871,-90.820,0.000
1587071697.288,-246.094,-880.859,-263.184,-184.570,0.000
1587071697.292,-150.879,-129.883,-209.961,-143.555,0.000
1587071697.296,-132.324,-74.707,-234.375,-21.973,0.000
1587071697.300,-227.539,-702.148,-264.648,-51.270,0.000
1587071697.304,-247.559,-718.750,-265.625,-172.852,0.000
1587071697.308,-154.785,-615.723,-253.418,-150.879,0.000
1587071697.312,-123.047,-677.734,-235.840,-14.160,0.000
1587071697.316,-199.707,-955.078,-252.441,-15.625,0.000
1587071697.320,-256.348,-954.102,-189.941,-155.273,0.000
1587071697.323,-207.031,-570.801,-145.508,-193.848,0.000
1587071697.327,-125.488,-612.305,-175.781,-73.242,0.000
1587071697.331,-177.734,-934.082,-177.246,-28.809,0.000
1587071697.335,-261.719,-951.660,-161.133,-150.879,0.000
1587071697.339,-201.660,-806.152,-157.715,-229.492,0.000
1587071697.343,-114.746,-808.105,-170.898,-139.160,0.000
1587071697.347,-158.691,-1000.000,-177.734,-20.020,0.000
1587071697.351,-239.258,-994.629,-155.762,-110.840,0.000
1587071697.355,-211.426,-987.305,-139.160,-223.145,0.000
1587071697.359,-120.605,-1000.000,-142.090,-150.879,0.000
1587071697.362,-142.578,-927.734,-112.793,-54.688,0.000
1587071697.366,-260.254,-840.332,-80.566,-100.586,0.000
1587071697.370,-266.602,-822.754,-102.539,-207.031,0.000
1587071697.374,-156.738,-911.621,-109.863,-184.082,0.000
1587071697.378,-128.906,-762.207,-83.984,-59.082,0.000
1587071697.382,-213.379,-689.453,-80.566,-44.434,0.000
1587071697.386,-258.301,-1000.000,-115.723,-170.898,0.000
1587071697.390,-201.172,-981.445,-100.586,-222.168,0.000
1587071697.394,-134.766,-697.266,-76.660,-106.934,0.000
1587071697.398,-179.199,-729.004,-108.887,-53.711,0.000
1587071697.402,-240.234,-1000.000,-119.141,-128.906,0.000
1587071697.405,-189.453,-1000.000,-82.031,-172.363,0.000
