timestamps,TP9,AF7,AF8,TP10,Right AUX
1586464766.128,-201.660,-295.410,-257.324,13.184,0.000
1586464766.132,-56.641,-98.633,-178.223,-287.598,0.000
1586464766.136,167.969,285.156,51.758,-118.164,0.000
1586464766.140,72.266,101.074,-29.297,217.773,0.000
1586464766.144,-175.781,-330.566,-254.395,114.746,0.000
1586464766.148,-126.953,-338.379,-265.625,-227.539,0.000
1586464766.152,116.699,-31.250,-81.055,-221.191,0.000
1586464766.156,117.676,-156.738,-110.352,147.461,0.000
1586464766.160,-148.438,-684.570,-378.418,187.988,0.000
1586464766.164,-227.051,-283.691,-231.934,-178.223,0.000
1586464766.168,27.832,142.578,-36.621,-301.758,0.000
1586464766.171,143.555,187.500,86.426,30.762,0.000
1586464766.175,-109.863,86.426,27.832,193.848,0.000
1586464766.179,-255.859,-23.926,-82.520,-78.613,0.000
1586464766.183,-31.250,-175.293,-221.680,-296.875,0.000
1586464766.187,152.344,-139.160,-186.035,-54.688,0.000
1586464766.191,-46.387,63.965,0.000,205.566,0.000
1586464766.195,-253.418,-233.398,-208.496,18.555,0.000
1586464766.199,-131.836,-314.453,-330.078,-298.340,0.000
1586464766.203,108.887,-486.328,-355.957,-158.203,0.000
1586464766.207,21.484,-303.711,-193.359,163.086,0.000
1586464766.211,-239.258,237.793,-73.242,56.641,0.000
1586464766.214,-198.242,-144.043,-386.719,-260.254,0.000
1586464766.218,12.695,72.266,-207.031,-321.777,0.000
1586464766.222,10.742,696.289,119.629,-10.254,0.000
1586464766.226,-259.766,663.086,68.848,61.523,0.000
1586464766.230,-329.102,108.398,-271.484,-259.277,0.000
1586464766.234,-107.422,173.828,-204.590,-434.570,0.000
1586464766.238,-17.090,693.359,108.887,-157.715,0.000
1586464766.242,-248.535,422.363,-127.930,22.461,0.000
1586464766.246,-391.113,-340.820,-478.027,-218.750,0.000
1586464766.250,-207.520,-296.875,-363.281,-462.891,0.000
1586464766.253,-42.969,639.648,92.285,-287.109,0.000
1586464766.257,-204.102,856.934,130.371,-8.789,0.000
1586464766.261,-408.691,-201.660,-368.652,-130.371,0.000
1586464766.265,-288.574,-647.949,-471.191,-432.617,0.000
1586464766.269,-62.012,290.039,-32.715,-367.188,0.000
1586464766.273,-123.047,378.906,20.996,-8.301,0.000
1586464766.277,-375.488,-151.855,-249.512,-21.484,0.000
1586464766.281,-333.984,-228.516,-305.664,-349.609,0.000
1586464766.285,-54.199,218.262,-52.246,-397.461,0.000
1586464766.289,-4.883,212.891,-39.062,-37.109,0.000
1586464766.293,-255.371,-515.625,-308.105,86.914,0.000
1586464766.296,-348.145,-501.953,-226.074,-217.773,0.000
1586464766.300,-102.539,216.309,65.918,-398.438,0.000
1586464766.304,75.195,322.754,67.383,-72.266,0.000
1586464766.308,-101.562,22.949,-41.992,181.152,0.000
1586464766.312,-251.953,-135.254,-46.875,-52.246,0.000
1586464766.316,-85.938,28.320,58.105,-326.660,0.000
1586464766.320,144.043,4.883,24.902,-111.816,0.000
1586464766.324,25.879,-81.543,26.367,207.520,0.000
1586464766.328,-218.750,-245.117,-124.512,79.102,0.000
1586464766.332,-104.492,-534.668,-317.871,-219.238,0.000
1586464766.336,166.992,-720.215,-375.000,-166.504,0.000
1586464766.339,136.719,-657.715,-198.242,188.477,0.000
1586464766.343,-139.160,-159.180,83.008,156.738,0.000
1586464766.347,-148.438,-127.930,5.371,-179.688,0.000
1586464766.351,119.141,-187.012,-35.156,-237.305,0.000
1586464766.355,203.613,86.914,52.734,101.074,0.000
1586464766.359,-54.688,173.828,116.211,222.168,0.000
1586464766.363,-159.180,-167.969,-46.387,-56.152,0.000
1586464766.367,62.988,-287.109,-167.969,-247.070,0.000
1586464766.371,208.496,-132.812,-40.527,21.484,0.000
1586464766.375,18.555,5.859,100.586,275.391,0.000
1586464766.378,-174.805,-175.781,-86.426,64.453,0.000
1586464766.382,-8.789,-569.824,-309.570,-207.520,0.000
1586464766.386,219.727,-398.926,-169.922,-44.434,0.000
1586464766.390,90.820,-18.555,83.984,258.789,0.000
1586464766.394,-160.645,-196.289,-120.117,158.691,0.000
1586464766.398,-82.520,-744.141,-397.461,-160.645,0.000
1586464766.402,173.828,-320.312,-41.016,-153.809,0.000
1586464766.406,170.410,318.848,183.594,195.801,0.000
1586464766.410,-92.773,-165.527,-144.531,232.910,0.000
1586464766.414,-121.094,-578.125,-380.371,-92.285,0.000
1586464766.418,117.676,-83.008,-48.828,-213.867,0.000
1586464766.421,193.359,403.320,178.711,99.121,0.000
1586464766.425,-40.527,-62.988,-103.516,258.301,0.000
1586464766.429,-171.387,-700.195,-396.484,-5.859,0.000
1586464766.433,35.156,-354.980,-151.855,-245.117,0.000
1586464766.437,214.844,316.406,183.594,-20.020,0.000
1586464766.441,45.410,-124.512,-130.371,277.832,0.000
1586464766.445,-171.875,-959.961,-552.246,105.469,0.000
1586464766.449,-46.875,-513.672,-248.535,-220.215,0.000
1586464766.453,189.941,143.555,34.180,-114.746,0.000
1586464766.457,86.914,230.469,124.512,228.516,0.000
1586464766.461,-168.457,-34.668,-18.555,149.414,0.000
1586464766.464,-104.004,-508.789,-314.453,-190.430,0.000
1586464766.468,148.438,-404.785,-288.086,-205.566,0.000
1586464766.472,135.742,0.977,-21.973,139.648,0.000
1586464766.476,-127.441,-270.508,-140.625,241.211,0.000
1586464766.480,-191.406,-384.766,-283.691,-72.266,0.000
1586464766.484,35.645,-29.297,-93.750,-250.000,0.000
1586464766.488,164.551,-365.723,-170.410,66.406,0.000
1586464766.492,-69.824,-369.629,-80.566,272.949,0.000
1586464766.496,-245.605,76.660,50.293,-21.973,0.000
1586464766.500,-42.480,-76.172,-87.402,-279.785,0.000
1586464766.503,167.969,-35.645,-92.285,-39.062,0.000
1586464766.507,-1.465,229.492,84.473,236.816,0.000
1586464766.511,-231.445,54.199,-73.730,69.824,0.000
1586464766.515,-81.543,-339.355,-331.055,-232.910,0.000
1586464766.519,145.508,-218.262,-194.336,-128.906,0.000
1586464766.523,56.641,-32.715,-22.461,216.797,0.000
1586464766.527,-192.871,-182.129,-200.684,164.551,0.000
1586464766.531,-166.992,-617.188,-446.289,-151.855,0.000
1586464766.535,103.027,-698.730,-354.004,-202.148,0.000
1586464766.539,117.188,243.652,108.398,103.027,0.000
1586464766.543,-131.348,329.102,42.480,199.219,0.000
1586464766.546,-204.590,-270.508,-249.512,-97.656,0.000
1586464766.550,40.039,-44.434,-59.570,-266.602,0.000
1586464766.554,192.871,563.965,177.734,35.156,0.000
1586464766.558,-24.902,131.348,-77.148,237.793,0.000
1586464766.562,-213.379,-601.562,-388.672,-10.742,0.000
1586464766.566,-57.617,-359.375,-222.168,-282.227,0.000
1586464766.570,149.414,0.000,-51.758,-100.586,0.000
1586464766.574,38.574,25.879,-21.484,205.078,0.000
1586464766.578,-187.500,-557.129,-292.969,95.215,0.000
1586464766.582,-132.324,-497.070,-222.168,-233.887,0.000
1586464766.586,105.957,443.848,177.734,-207.520,0.000
1586464766.589,94.727,436.035,79.590,163.574,0.000
1586464766.593,-162.109,-98.633,-217.285,167.969,0.000
1586464766.597,-174.805,-135.742,-214.844,-174.805,0.000
1586464766.601,84.961,289.062,51.270,-261.719,0.000
1586464766.605,149.902,298.340,60.547,71.777,0.000
1586464766.609,-104.492,-7.812,-33.691,198.242,0.000
1586464766.613,-211.426,-66.895,-59.082,-79.590,0.000
1586464766.617,26.855,-79.102,-125.488,-279.785,0.000
1586464766.621,190.430,-237.793,-205.078,-5.859,0.000
1586464766.625,-16.602,-496.582,-270.508,261.230,0.000
1586464766.628,-216.309,-91.797,-11.719,17.578,0.000
1586464766.632,-56.152,188.965,59.570,-287.598,0.000
1586464766.636,161.133,106.445,-47.363,-118.652,0.000
1586464766.640,56.641,63.477,-44.922,211.426,0.000
1586464766.644,-195.801,134.277,42.480,114.258,0.000
1586464766.648,-124.512,-28.320,-113.281,-192.871,0.000
1586464766.652,144.043,-229.980,-265.625,-178.711,0.000
1586464766.656,113.281,-77.148,-64.941,144.043,0.000
1586464766.660,-164.062,-74.219,-89.355,172.363,0.000
1586464766.664,-182.617,-498.535,-376.953,-147.949,0.000
1586464766.668,84.961,-492.676,-290.039,-267.578,0.000
1586464766.671,165.527,170.898,45.898,45.410,0.000
1586464766.675,-91.797,364.258,102.051,201.172,0.000
1586464766.679,-219.727,-141.113,-233.398,-76.660,0.000
1586464766.683,-0.977,-697.266,-390.137,-280.762,0.000
1586464766.687,169.922,-193.848,-11.719,-29.785,0.000
1586464766.691,-26.855,387.695,163.086,223.145,0.000
1586464766.695,-247.070,-180.176,-212.891,31.738,0.000
1586464766.699,-112.793,-371.582,-275.879,-258.301,0.000
1586464766.703,129.883,276.367,108.398,-139.160,0.000
1586464766.707,39.062,526.855,176.270,182.617,0.000
1586464766.711,-208.496,-304.688,-241.211,135.742,0.000
1586464766.714,-133.789,-832.031,-485.840,-166.992,0.000
1586464766.718,107.422,-47.852,-59.570,-211.914,0.000
1586464766.722,75.195,406.250,163.086,101.074,0.000
1586464766.726,-193.848,-302.246,-172.852,181.641,0.000
1586464766.730,-242.188,-678.711,-385.254,-129.395,0.000
1586464766.734,-13.184,21.973,-39.551,-336.914,0.000
1586464766.738,98.145,208.496,53.711,-38.574,0.000
1586464766.742,-132.324,-161.621,-158.203,169.922,0.000
1586464766.746,-301.758,-600.098,-382.324,-95.703,0.000
1586464766.750,-120.605,-412.598,-237.305,-347.168,0.000
1586464766.753,75.195,149.414,41.992,-127.441,0.000
1586464766.757,-67.383,-187.500,-174.805,170.410,0.000
1586464766.761,-308.594,-572.754,-366.699,-6.836,0.000
1586464766.765,-199.219,-217.285,-174.316,-334.473,0.000
1586464766.769,81.055,169.922,16.602,-224.121,0.000
1586464766.773,29.785,-274.414,-181.152,142.578,0.000
1586464766.777,-247.559,-446.289,-296.387,84.961,0.000
1586464766.781,-234.375,-20.996,-144.531,-258.301,0.000
1586464766.785,31.250,-68.848,-107.910,-290.527,0.000
1586464766.789,81.055,-74.219,-65.430,62.012,0.000
1586464766.793,-180.664,104.492,32.715,169.434,0.000
1586464766.796,-248.535,-214.355,-201.660,-119.629,0.000
1586464766.800,7.324,-360.352,-314.453,-304.199,0.000
1586464766.804,140.625,-164.062,-212.891,-15.625,0.000
1586464766.808,-75.684,-34.180,-39.062,210.449,0.000
1586464766.812,-252.930,3.418,-52.246,-41.992,0.000
1586464766.816,-61.523,-563.477,-434.570,-283.203,0.000
1586464766.820,145.508,-626.465,-313.965,-80.566,0.000
1586464766.824,-8.301,169.434,117.188,202.148,0.000
1586464766.828,-232.910,62.988,-38.574,84.961,0.000
1586464766.832,-138.672,-555.664,-298.340,-219.238,0.000
1586464766.836,93.750,-234.375,-61.035,-192.383,0.000
1586464766.839,56.152,189.453,126.465,142.578,0.000
1586464766.843,-189.453,-268.555,-170.898,159.180,0.000
1586464766.847,-187.988,-454.590,-308.105,-195.801,0.000
1586464766.851,54.688,-312.988,-239.258,-247.070,0.000
1586464766.855,124.023,-114.746,-97.656,116.699,0.000
1586464766.859,-103.516,-254.395,-158.203,198.730,0.000
1586464766.863,-205.078,-888.184,-548.340,-58.105,0.000
1586464766.867,12.695,-618.652,-269.531,-272.461,0.000
1586464766.871,171.387,390.137,188.477,-36.133,0.000
1586464766.875,-12.695,168.457,-8.789,229.980,0.000
1586464766.878,-201.172,-282.715,-190.430,0.000,0.000
1586464766.882,-47.852,-46.875,-53.223,-300.293,0.000
1586464766.886,162.109,401.855,173.828,-142.578,0.000
1586464766.890,55.664,243.652,38.086,189.941,0.000
1586464766.894,-172.852,-320.312,-311.523,104.492,0.000
1586464766.898,-113.770,-424.805,-333.496,-228.516,0.000
1586464766.902,134.766,-174.316,-201.660,-222.168,0.000
1586464766.906,141.113,-246.582,-260.742,144.043,0.000
1586464766.910,-139.160,-669.922,-399.902,161.133,0.000
1586464766.914,-212.891,-406.738,-276.855,-195.801,0.000
1586464766.918,36.133,-31.250,-77.637,-307.129,0.000
1586464766.921,136.230,101.562,15.625,13.672,0.000
1586464766.925,-100.586,180.176,58.594,178.223,0.000
1586464766.929,-242.188,9.766,-88.867,-94.238,0.000
1586464766.933,-47.852,-246.582,-285.645,-311.035,0.000
1586464766.937,129.883,-18.066,-113.281,-55.664,0.000
1586464766.941,-43.945,128.906,20.020,222.656,0.000
1586464766.945,-256.836,-302.734,-230.469,41.992,0.000
1586464766.949,-114.258,-470.703,-330.566,-263.672,0.000
1586464766.953,125.488,-621.094,-284.180,-148.438,0.000
1586464766.957,15.137,-214.355,-11.719,164.551,0.000
1586464766.961,-241.699,293.457,126.953,76.660,0.000
1586464766.964,-171.387,-166.992,-137.207,-220.215,0.000
1586464766.968,83.496,-211.426,-118.652,-231.934,0.000
1586464766.972,86.426,89.844,53.711,93.750,0.000
1586464766.976,-175.781,77.637,48.340,163.574,0.000
1586464766.980,-228.027,-286.133,-236.328,-134.277,0.000
1586464766.984,25.879,-361.328,-278.809,-273.926,0.000
1586464766.988,139.648,228.027,91.797,11.719,0.000
1586464766.992,-83.496,35.645,-95.215,216.309,0.000
1586464766.996,-234.863,-686.523,-476.074,-21.973,0.000
1586464767.000,-35.645,-832.520,-434.570,-258.789,0.000
1586464767.003,137.207,145.020,76.660,-75.684,0.000
1586464767.007,-34.668,472.168,86.426,190.918,0.000
1586464767.011,-246.094,-279.297,-244.141,43.457,0.000
1586464767.015,-125.488,-228.027,-85.449,-276.855,0.000
1586464767.019,111.816,396.484,133.789,-186.523,0.000
1586464767.023,51.270,416.016,49.316,171.387,0.000
1586464767.027,-202.148,-260.742,-253.906,142.090,0.000
1586464767.031,-181.641,-623.535,-359.863,-202.148,0.000
1586464767.035,65.918,-111.328,-110.840,-272.461,0.000
1586464767.039,117.676,179.688,60.547,67.383,0.000
1586464767.043,-102.051,-496.582,-255.859,203.613,0.000
1586464767.046,-203.613,-599.121,-348.633,-99.609,0.000
1586464767.050,7.324,334.473,81.055,-313.477,0.000
1586464767.054,161.621,531.738,122.070,-10.742,0.000
1586464767.058,-61.035,163.086,-9.766,231.934,0.000
1586464767.062,-228.516,42.480,3.418,-5.371,0.000
1586464767.066,-38.086,150.879,48.340,-284.180,0.000
1586464767.070,171.387,226.562,62.988,-105.469,0.000
1586464767.074,44.434,55.176,-35.156,211.914,0.000
1586464767.078,-193.359,-204.590,-230.469,66.406,0.000
1586464767.082,-112.793,-103.516,-230.469,-270.508,0.000
1586464767.086,154.785,-250.000,-293.457,-182.617,0.000
1586464767.089,134.766,-604.492,-412.109,177.734,0.000
1586464767.093,-142.090,-279.297,-207.031,143.555,0.000
1586464767.097,-169.922,88.379,20.020,-193.848,0.000
1586464767.101,86.914,20.508,-39.551,-268.066,0.000
1586464767.105,151.855,151.367,1.465,58.594,0.000
1586464767.109,-95.215,290.527,86.914,182.617,0.000
1586464767.113,-167.969,-74.707,-121.094,-51.758,0.000
1586464767.117,48.340,-132.324,-211.426,-240.723,0.000
1586464767.121,164.062,66.895,-50.781,-40.039,0.000
1586464767.125,-81.543,-6.348,-109.375,165.527,0.000
1586464767.128,-304.199,-69.336,-177.734,-63.477,0.000
1586464767.132,-152.344,-322.266,-235.840,-353.516,0.000
1586464767.136,43.945,-78.613,-65.918,-214.355,0.000
1586464767.140,-76.660,336.426,122.559,87.891,0.000
1586464767.144,-330.078,-91.309,-193.848,-3.418,0.000
1586464767.148,-270.996,-708.984,-402.832,-313.965,0.000
1586464767.152,-14.648,-175.781,-13.184,-323.242,0.000
1586464767.156,-16.113,550.781,195.312,14.648,0.000
1586464767.160,-263.184,100.098,-116.211,67.871,0.000
1586464767.164,-286.621,-293.457,-326.172,-220.215,0.000
1586464767.168,-11.719,106.934,-21.484,-336.914,0.000
1586464767.171,94.727,595.215,223.145,-15.137,0.000
1586464767.175,-136.719,147.461,-68.848,184.570,0.000
1586464767.179,-250.977,-618.652,-405.273,-81.055,0.000
1586464767.183,-53.711,-295.410,-168.457,-316.406,0.000
1586464767.187,111.328,494.629,161.133,-82.031,0.000
1586464767.191,-40.527,-78.613,-192.871,223.145,0.000
1586464767.195,-247.070,-856.934,-515.137,50.781,0.000
1586464767.199,-141.602,-109.375,-61.035,-295.410,0.000
1586464767.203,103.027,411.133,122.559,-176.758,0.000
1586464767.207,38.086,182.617,-36.621,182.617,0.000
1586464767.211,-239.258,-53.223,-139.160,99.121,0.000
1586464767.214,-200.684,-320.312,-280.762,-229.492,0.000
1586464767.218,67.871,-287.109,-276.367,-239.258,0.000
1586464767.222,75.195,65.430,8.789,80.566,0.000
1586464767.226,-179.688,-201.660,-144.043,164.062,0.000
1586464767.230,-244.141,-430.664,-351.074,-143.555,0.000
1586464767.234,-5.371,31.250,-82.520,-320.312,0.000
1586464767.238,134.277,-175.781,-113.281,19.043,0.000
1586464767.242,-96.191,-318.359,-76.660,208.496,0.000
1586464767.246,-255.859,33.691,20.996,-77.637,0.000
1586464767.250,-28.320,-136.230,-163.574,-298.340,0.000
1586464767.253,164.551,-30.762,-112.305,-77.637,0.000
1586464767.257,-9.766,259.766,95.215,201.660,0.000
1586464767.261,-231.445,15.625,-95.703,36.621,0.000
1586464767.265,-102.051,-355.957,-329.102,-266.113,0.000
1586464767.269,140.625,-61.035,-139.160,-179.688,0.000
1586464767.273,75.195,31.738,-29.297,166.992,0.000
1586464767.277,-183.594,-226.074,-201.172,124.512,0.000
1586464767.281,-153.809,-574.707,-388.184,-182.617,0.000
1586464767.285,93.750,-778.809,-402.344,-232.910,0.000
1586464767.289,108.887,118.652,44.434,57.129,0.000
1586464767.293,-129.883,375.000,96.680,167.969,0.000
1586464767.296,-212.891,-260.254,-252.930,-126.953,0.000
1586464767.300,1.465,-144.531,-126.953,-318.359,0.000
1586464767.304,143.555,461.426,152.832,-38.574,0.000
1586464767.308,-50.781,141.113,-114.258,193.848,0.000
1586464767.312,-221.680,-318.359,-297.363,-32.227,0.000
1586464767.316,-53.223,-50.781,-63.477,-307.129,0.000
1586464767.320,168.457,73.242,-17.578,-121.094,0.000
1586464767.324,30.273,-60.059,-104.004,175.781,0.000
1586464767.328,-208.984,-669.922,-392.578,67.871,0.000
1586464767.332,-118.652,-630.371,-350.098,-252.441,0.000
1586464767.336,115.234,237.305,35.156,-219.727,0.000
1586464767.339,78.613,223.145,35.156,151.367,0.000
1586464767.343,-174.805,-171.387,-172.363,148.926,0.000
1586464767.347,-195.801,-14.648,-50.781,-190.918,0.000
1586464767.351,45.898,360.352,141.113,-279.785,0.000
1586464767.355,138.672,340.820,45.898,69.336,0.000
1586464767.359,-107.422,-43.945,-123.535,196.289,0.000
1586464767.363,-227.539,-183.105,-225.586,-114.258,0.000
1586464767.367,14.648,-326.660,-356.445,-284.180,0.000
1586464767.371,169.434,-179.199,-203.125,-18.066,0.000
1586464767.375,-49.805,82.031,-15.137,201.660,0.000
1586464767.378,-245.605,-51.758,-161.621,-3.418,0.000
1586464767.382,-82.520,-190.430,-265.137,-282.227,0.000
1586464767.386,167.480,-350.586,-334.473,-105.469,0.000
1586464767.390,47.852,-414.062,-245.605,229.004,0.000
1586464767.394,-222.168,-5.371,-14.648,97.168,0.000
1586464767.398,-122.559,20.020,-200.684,-222.168,0.000
1586464767.402,133.789,-201.172,-312.988,-201.172,0.000
1586464767.406,102.539,-41.016,-89.355,110.352,0.000
1586464767.410,-161.621,114.258,-50.781,133.789,0.000
1586464767.414,-190.430,-314.453,-353.516,-162.109,0.000
1586464767.418,64.453,-666.016,-330.078,-265.625,0.000
1586464767.421,153.320,-43.457,49.316,51.270,0.000
1586464767.425,-93.750,445.801,115.234,201.172,0.000
1586464767.429,-221.680,-105.957,-237.793,-69.824,0.000
1586464767.433,-21.973,-154.785,-157.715,-289.062,0.000
1586464767.437,144.531,297.363,89.355,-51.758,0.000
1586464767.441,-43.945,318.848,97.168,212.402,0.000
1586464767.445,-258.789,-88.867,-128.418,19.531,0.000
1586464767.449,-116.699,-171.387,-265.137,-283.203,0.000
1586464767.453,133.789,303.711,36.621,-156.738,0.000
1586464767.457,48.340,381.348,84.961,187.012,0.000
1586464767.461,-209.961,-427.734,-377.441,144.531,0.000
1586464767.464,-164.062,-789.062,-551.270,-180.176,0.000
1586464767.468,69.824,8.789,-66.406,-258.789,0.000
1586464767.472,83.496,458.496,138.184,95.703,0.000
1586464767.476,-170.410,-15.625,-77.637,202.148,0.000
1586464767.480,-237.793,-307.617,-242.676,-122.559,0.000
1586464767.484,16.113,163.574,-16.602,-282.227,0.000
1586464767.488,138.184,492.676,120.117,22.949,0.000
1586464767.492,-97.656,-9.766,-134.277,230.469,0.000
1586464767.496,-254.883,-507.812,-306.641,-23.926,0.000
1586464767.500,-58.105,-314.941,-258.301,-290.527,0.000
1586464767.503,136.230,-86.914,-216.797,-69.824,0.000
1586464767.507,-15.137,-259.277,-238.281,222.656,0.000
1586464767.511,-238.281,-467.285,-325.684,62.988,0.000
1586464767.515,-122.070,-129.883,-198.242,-239.746,0.000
1586464767.519,144.043,123.047,-21.484,-147.461,0.000
1586464767.523,88.867,-228.516,-158.203,204.590,0.000
1586464767.527,-204.590,-235.840,-146.973,132.812,0.000
1586464767.531,-194.336,-21.484,-151.367,-218.262,0.000
1586464767.535,82.520,-223.633,-352.539,-243.652,0.000
1586464767.539,133.301,-408.203,-314.941,102.539,0.000
1586464767.543,-147.461,-145.996,-95.703,188.477,0.000
1586464767.546,-250.977,2.930,-164.551,-115.234,0.000
1586464767.550,-13.672,-132.324,-303.711,-284.668,0.000
1586464767.554,117.676,-149.414,-280.273,13.184,0.000
1586464767.558,-103.027,-100.586,-194.824,224.609,0.000
1586464767.562,-298.340,-106.934,-214.355,-38.574,0.000
1586464767.566,-125.977,-405.273,-385.254,-290.039,0.000
1586464767.570,97.656,-481.445,-233.398,-91.309,0.000
1586464767.574,-40.527,177.246,123.047,192.383,0.000
1586464767.578,-270.020,194.824,34.668,62.988,0.000
1586464767.582,-162.109,-461.914,-232.422,-233.398,0.000
1586464767.586,85.449,-221.680,-82.031,-180.176,0.000
1586464767.589,54.199,354.980,143.066,151.367,0.000
1586464767.593,-201.660,-120.605,-147.949,153.809,0.000
1586464767.597,-213.379,-365.234,-298.828,-184.082,0.000
1586464767.601,52.246,-264.648,-222.168,-266.113,0.000
1586464767.605,121.094,129.883,41.016,68.359,0.000
1586464767.609,-111.816,141.113,-6.836,209.961,0.000
1586464767.613,-213.379,-543.457,-348.633,-72.754,0.000
1586464767.617,-6.836,-420.410,-215.820,-280.762,0.000
1586464767.621,145.996,408.691,169.434,-15.137,0.000
1586464767.625,-31.738,325.195,41.992,237.793,0.000
1586464767.628,-213.867,-628.906,-380.371,36.621,0.000
1586464767.632,-66.406,-390.137,-155.273,-271.484,0.000
1586464767.636,162.598,456.055,171.875,-135.254,0.000
1586464767.640,65.918,321.289,38.574,201.172,0.000
1586464767.644,-187.012,-126.953,-235.840,110.840,0.000
1586464767.648,-131.836,-337.891,-354.492,-208.984,0.000
1586464767.652,114.746,79.102,-46.875,-215.332,0.000
1586464767.656,114.258,116.699,-50.781,133.789,0.000
1586464767.660,-137.695,-716.797,-449.219,190.918,0.000
1586464767.664,-208.984,-301.758,-145.020,-161.133,0.000
1586464767.668,52.246,351.562,90.332,-283.203,0.000
1586464767.671,191.406,184.082,1.953,71.777,0.000
1586464767.675,-51.270,20.020,-30.273,249.512,0.000
1586464767.679,-208.008,89.844,-23.926,-52.246,0.000
1586464767.683,12.695,-181.641,-224.609,-281.250,0.000
1586464767.687,208.496,-76.172,-156.250,-39.062,0.000
1586464767.691,28.809,207.031,20.020,225.586,0.000
1586464767.695,-175.293,-217.285,-223.633,46.875,0.000
1586464767.699,-14.160,-373.047,-334.473,-240.723,0.000
1586464767.703,248.535,-364.746,-236.816,-83.496,0.000
1586464767.707,155.762,-142.090,-76.172,266.602,0.000
1586464767.711,-101.074,128.418,-46.387,188.965,0.000
1586464767.714,-50.781,-14.160,-130.859,-129.883,0.000
1586464767.718,200.684,175.293,-73.242,-156.738,0.000
1586464767.722,212.891,545.410,126.465,180.664,0.000
1586464767.726,-46.875,357.910,52.734,250.000,0.000
1586464767.730,-101.074,-282.227,-333.984,-60.547,0.000
1586464767.734,138.672,-319.824,-295.410,-212.402,0.000
1586464767.738,226.074,364.746,98.145,69.336,0.000
1586464767.742,-14.648,117.188,-88.867,273.926,0.000
1586464767.746,-161.621,-670.410,-489.746,46.387,0.000
1586464767.750,29.785,-857.910,-504.395,-205.566,0.000
1586464767.753,196.777,20.996,4.883,-23.438,0.000
1586464767.757,33.691,403.320,93.262,249.023,0.000
1586464767.761,-193.848,-132.324,-178.223,91.797,0.000
1586464767.765,-79.590,-257.812,-295.898,-209.961,0.000
1586464767.769,160.645,196.777,-57.129,-145.508,0.000
1586464767.773,102.051,334.473,47.363,178.223,0.000
1586464767.777,-160.645,-298.340,-323.730,156.738,0.000
1586464767.781,-165.039,-319.336,-260.742,-163.574,0.000
1586464767.785,81.055,281.250,49.316,-222.656,0.000
1586464767.789,139.160,230.469,-1.465,134.766,0.000
1586464767.793,-107.910,-438.965,-290.039,251.953,0.000
1586464767.796,-208.008,-557.129,-304.199,-72.754,0.000
1586464767.800,19.043,225.586,79.102,-254.883,0.000
1586464767.804,179.688,449.707,84.961,53.711,0.000
1586464767.808,0.977,-437.012,-281.738,284.180,0.000
1586464767.812,-200.684,-481.445,-182.129,10.742,0.000
1586464767.816,-57.129,133.301,30.273,-289.551,0.000
1586464767.820,175.781,120.117,-10.254,-83.984,0.000
1586464767.824,33.691,49.316,-31.738,224.609,0.000
1586464767.828,-220.703,22.949,-19.043,80.566,0.000
1586464767.832,-121.094,59.570,-19.043,-245.117,0.000
1586464767.836,144.043,-295.410,-319.336,-173.340,0.000
1586464767.839,107.910,-397.461,-231.445,181.641,0.000
1586464767.843,-174.316,18.066,23.926,150.391,0.000
1586464767.847,-179.199,-200.195,-266.113,-175.293,0.000
1586464767.851,97.168,-542.969,-381.348,-255.859,0.000
1586464767.855,152.832,-111.328,-98.145,52.246,0.000
1586464767.859,-110.352,308.594,82.031,186.035,0.000
1586464767.863,-215.820,35.156,-44.922,-92.773,0.000
1586464767.867,4.883,-93.262,-139.648,-314.941,0.000
1586464767.871,166.016,-110.352,-180.664,-37.109,0.000
1586464767.875,-32.715,31.250,-30.762,207.031,0.000
1586464767.878,-225.098,-6.348,-94.727,-9.277,0.000
1586464767.882,-48.340,-451.172,-333.008,-270.508,0.000
1586464767.886,174.316,-257.324,-153.809,-113.281,0.000
1586464767.890,56.641,358.887,153.320,178.711,0.000
1586464767.894,-176.758,8.301,-153.320,82.031,0.000
1586464767.898,-108.398,-460.449,-353.516,-226.074,0.000
1586464767.902,138.184,79.102,-0.488,-240.723,0.000
1586464767.906,141.602,396.973,91.797,110.840,0.000
1586464767.910,-125.488,-250.000,-291.016,165.527,0.000
1586464767.914,-181.641,-535.645,-392.578,-167.480,0.000
1586464767.918,63.965,-104.980,-102.539,-297.363,0.000
1586464767.921,159.180,308.594,95.703,30.273,0.000
1586464767.925,-82.520,17.090,-159.668,204.102,0.000
1586464767.929,-216.797,-817.871,-537.598,-54.688,0.000
1586464767.933,-19.043,-444.336,-207.520,-300.293,0.000
1586464767.937,152.344,461.426,171.387,-80.078,0.000
1586464767.941,-8.301,-10.742,-103.516,222.168,0.000
1586464767.945,-223.633,-665.039,-421.387,36.621,0.000
1586464767.949,-116.699,-44.434,-45.410,-305.176,0.000
1586464767.953,124.512,412.109,127.930,-166.016,0.000
1586464767.957,62.988,115.234,-45.410,181.641,0.000
1586464767.961,-191.895,-226.074,-249.023,87.402,0.000
1586464767.964,-169.922,-309.082,-317.871,-233.887,0.000
1586464767.968,90.332,-262.695,-250.488,-253.906,0.000
1586464767.972,114.258,-62.988,-199.219,81.543,0.000
1586464767.976,-161.621,-355.957,-333.008,164.062,0.000
1586464767.980,-230.469,-591.797,-403.809,-146.484,0.000
1586464767.984,18.066,-186.035,-227.539,-299.805,0.000
1586464767.988,150.879,-354.980,-215.820,46.387,0.000
1586464767.992,-100.098,-291.992,-78.125,236.816,0.000
1586464767.996,-290.527,165.039,59.082,-65.430,0.000
1586464768.000,-79.102,-66.895,-141.113,-300.781,0.000
1586464768.003,130.859,54.199,-103.027,-77.148,0.000
1586464768.007,-35.156,375.000,110.352,200.684,0.000
1586464768.011,-259.277,179.199,22.949,42.969,0.000
1586464768.015,-146.484,-130.859,-222.168,-257.812,0.000
1586464768.019,96.191,-58.105,-210.449,-168.945,0.000
1586464768.023,42.480,107.422,22.461,168.945,0.000
1586464768.027,-221.680,-175.293,-158.691,127.930,0.000
1586464768.031,-186.523,-569.336,-381.348,-181.641,0.000
1586464768.035,107.422,-323.242,-233.887,-214.355,0.000
1586464768.039,144.531,269.043,41.016,119.141,0.000
1586464768.043,-158.691,258.789,58.105,196.289,0.000
1586464768.046,-256.836,-553.223,-421.387,-111.816,0.000
1586464768.050,-20.020,-643.066,-367.676,-271.973,0.000
1586464768.054,98.145,365.234,180.664,-18.555,0.000
1586464768.058,-106.934,8.789,-131.348,203.613,0.000
1586464768.062,-284.668,-479.980,-339.355,-17.090,0.000
1586464768.066,-109.375,-165.039,-134.766,-298.828,0.000
1586464768.070,125.977,-3.906,-74.219,-98.633,0.000
1586464768.074,0.488,-206.055,-238.770,216.797,0.000
1586464768.078,-237.793,-569.336,-348.633,67.871,0.000
1586464768.082,-149.902,-550.293,-291.504,-253.906,0.000
1586464768.086,89.844,83.008,-15.137,-192.383,0.000
1586464768.089,68.359,435.059,92.773,154.785,0.000
1586464768.093,-167.969,-417.480,-255.371,183.594,0.000
1586464768.097,-187.988,-523.926,-215.820,-166.504,0.000
1586464768.101,57.129,322.754,99.121,-282.715,0.000
1586464768.105,143.066,322.266,31.250,76.172,0.000
1586464768.109,-113.281,42.480,-84.961,214.355,0.000
1586464768.113,-225.098,45.898,-32.715,-95.215,0.000
1586464768.117,13.184,-55.664,-187.988,-294.922,0.000
1586464768.121,186.035,-197.266,-283.203,-5.371,0.000
1586464768.125,2.441,-416.992,-276.855,253.418,0.000
1586464768.128,-223.145,-151.855,-103.516,9.277,0.000
1586464768.132,-64.941,-9.766,-115.234,-300.781,0.000
1586464768.136,171.387,52.734,-124.023,-129.883,0.000
1586464768.140,52.734,32.227,-54.199,207.031,0.000
1586464768.144,-208.496,51.758,-0.488,89.844,0.000
1586464768.148,-141.602,103.027,-10.254,-229.492,0.000
1586464768.152,124.512,-15.625,-156.250,-192.871,0.000
1586464768.156,117.188,220.703,-5.371,142.578,0.000
1586464768.160,-148.926,261.230,57.617,167.969,0.000
1586464768.164,-185.059,-133.789,-226.074,-136.719,0.000
1586464768.168,81.543,-586.426,-373.047,-248.047,0.000
1586464768.171,169.922,-224.121,-108.887,63.477,0.000
1586464768.175,-94.238,369.141,125.488,202.637,0.000
1586464768.179,-222.656,-24.414,-154.297,-76.660,0.000
1586464768.183,-2.930,-173.340,-209.473,-291.992,0.000
1586464768.187,160.645,286.133,83.984,-58.594,0.000
1586464768.191,-18.066,489.258,117.188,204.590,0.000
1586464768.195,-220.703,-31.738,-176.270,36.621,0.000
1586464768.199,-84.961,-508.789,-413.086,-250.488,0.000
1586464768.203,147.949,104.004,-47.852,-151.855,0.000
1586464768.207,47.363,550.293,130.371,165.527,0.000
1586464768.211,-201.172,-322.266,-351.074,126.953,0.000
1586464768.214,-145.020,-736.328,-480.957,-196.777,0.000
1586464768.218,95.215,20.020,-59.570,-258.301,0.000
1586464768.222,95.215,547.852,193.848,88.379,0.000
1586464768.226,-137.695,-220.703,-239.746,204.590,0.000
1586464768.230,-195.312,-765.137,-481.445,-121.094,0.000
1586464768.234,13.184,107.910,13.672,-308.594,0.000
1586464768.238,137.207,558.594,161.133,20.020,0.000
1586464768.242,-71.777,334.961,5.859,224.609,0.000
1586464768.246,-227.051,-186.523,-262.207,-29.297,0.000
1586464768.250,-45.410,-108.398,-183.594,-286.621,0.000
1586464768.253,137.207,286.133,47.852,-75.684,0.000
1586464768.257,-18.555,-72.266,-162.598,219.727,0.000
1586464768.261,-246.582,-504.395,-380.371,39.551,0.000
1586464768.265,-132.812,-302.246,-264.160,-279.785,0.000
1586464768.269,153.320,129.883,-16.113,-164.551,0.000
1586464768.273,96.680,-110.840,-54.688,219.727,0.000
1586464768.277,-223.633,-230.957,-98.633,130.859,0.000
1586464768.281,-230.957,-84.473,-135.742,-261.719,0.000
1586464768.285,34.180,-242.188,-307.129,-314.941,0.000
1586464768.289,66.406,-194.336,-190.430,24.902,0.000
1586464768.293,-198.242,-68.848,-29.297,115.234,0.000
1586464768.296,-288.086,-104.004,-101.074,-186.523,0.000
1586464768.300,-47.363,-211.914,-217.773,-360.840,0.000
1586464768.304,108.887,-300.293,-261.719,-67.383,0.000
1586464768.308,-97.168,-38.574,1.953,146.484,0.000
1586464768.312,-267.090,-39.551,-101.562,-90.332,0.000
1586464768.316,-69.824,-648.438,-472.656,-316.406,0.000
1586464768.320,143.066,-613.770,-249.023,-121.582,0.000
1586464768.324,-0.488,240.723,162.109,148.926,0.000
1586464768.328,-215.332,18.555,-138.672,37.109,0.000
1586464768.332,-120.117,-437.012,-352.051,-265.137,0.000
1586464768.336,125.000,84.961,25.391,-226.074,0.000
1586464768.339,94.727,315.918,45.898,119.629,0.000
1586464768.343,-178.711,-188.965,-279.297,136.230,0.000
1586464768.347,-204.102,-317.383,-318.359,-191.406,0.000
1586464768.351,49.805,-217.773,-292.969,-283.691,0.000
1586464768.355,104.004,225.586,21.484,38.086,0.000
1586464768.359,-148.926,349.121,29.785,172.363,0.000
1586464768.363,-232.910,-539.062,-407.715,-84.473,0.000
1586464768.367,-16.113,-340.332,-156.738,-308.105,0.000
1586464768.371,134.277,545.410,177.734,-59.082,0.000
1586464768.375,-49.316,100.586,-96.191,208.496,0.000
1586464768.378,-257.324,-308.105,-289.062,-3.418,0.000
1586464768.382,-103.027,71.289,-24.902,-298.340,0.000
1586464768.386,135.742,575.195,190.918,-140.137,0.000
1586464768.390,25.391,369.629,43.945,183.105,0.000
1586464768.394,-224.609,-165.527,-257.324,77.637,0.000
1586464768.398,-156.738,-307.617,-335.938,-244.629,0.000
1586464768.402,91.309,104.980,-1.953,-235.352,0.000
1586464768.406,101.074,141.602,-24.414,128.418,0.000
1586464768.410,-147.461,-326.172,-327.637,167.480,0.000
1586464768.414,-187.012,-139.648,-247.559,-167.969,0.000
1586464768.418,64.453,211.914,-27.344,-293.945,0.000
1586464768.421,175.781,-111.328,-155.273,54.199,0.000
1586464768.425,-63.965,-547.852,-302.246,233.887,0.000
1586464768.429,-223.145,-9.277,8.301,-71.289,0.000
1586464768.433,-7.324,9.277,-91.309,-291.016,0.000
1586464768.437,172.363,158.691,54.199,-61.523,0.000
1586464768.441,-4.883,375.488,97.656,202.637,0.000
1586464768.445,-212.891,-184.082,-259.277,15.137,0.000
1586464768.449,-75.195,-397.949,-330.078,-277.344,0.000
1586464768.453,181.641,-482.422,-302.246,-117.188,0.000
1586464768.457,80.078,-206.543,-73.730,193.359,0.000
1586464768.461,-213.867,241.211,64.941,89.355,0.000
1586464768.464,-152.344,-97.168,-183.594,-221.191,0.000
1586464768.468,110.840,-6.836,-129.883,-242.188,0.000
1586464768.472,129.395,501.953,123.047,90.332,0.000
1586464768.476,-131.836,383.301,83.496,152.344,0.000
1586464768.480,-210.449,-168.457,-232.422,-135.254,0.000
1586464768.484,36.133,-169.922,-234.863,-278.320,0.000
1586464768.488,151.855,405.273,113.770,5.371,0.000
1586464768.492,-73.242,130.859,-106.934,220.703,0.000
1586464768.496,-236.816,-682.617,-473.145,-20.996,0.000
1586464768.500,-59.570,-508.301,-254.883,-284.180,0.000
1586464768.503,118.652,298.340,123.047,-66.406,0.000
1586464768.507,-43.457,429.199,139.648,222.168,0.000
1586464768.511,-260.742,-380.371,-288.574,77.637,0.000
1586464768.515,-159.668,-729.492,-383.301,-222.656,0.000
1586464768.519,71.289,147.461,97.168,-169.922,0.000
1586464768.523,10.742,466.797,119.141,169.922,0.000
1586464768.527,-250.488,-327.148,-207.031,156.738,0.000
1586464768.531,-237.793,-562.500,-175.293,-189.453,0.000
1586464768.535,7.324,173.828,94.727,-270.996,0.000
1586464768.539,76.172,180.176,33.203,90.820,0.000
1586464768.543,-155.273,-447.266,-167.480,209.473,0.000
1586464768.546,-256.348,-585.449,-299.316,-114.746,0.000
1586464768.550,-21.484,-196.777,-244.141,-304.688,0.000
1586464768.554,144.531,-57.617,-122.559,-0.488,0.000
1586464768.558,-62.988,-165.527,-115.234,220.215,0.000
1586464768.562,-248.535,-158.691,-85.449,-30.762,0.000
1586464768.566,-62.988,17.090,28.809,-295.898,0.000
1586464768.570,148.926,49.805,-5.859,-96.680,0.000
1586464768.574,-1.465,-1.953,-45.410,216.309,0.000
1586464768.578,-259.277,16.113,-9.277,75.195,0.000
1586464768.582,-156.250,-1.953,-9.766,-217.285,0.000
1586464768.586,116.211,-228.516,-140.137,-132.324,0.000
1586464768.589,24.902,-230.957,-112.305,153.320,0.000
1586464768.593,-316.895,-0.977,19.043,81.543,0.000
1586464768.597,-288.574,42.480,22.461,-232.422,0.000
1586464768.601,46.387,-189.941,-130.371,-222.168,0.000
1586464768.605,90.332,-447.266,-242.188,134.766,0.000
1586464768.609,-248.535,-138.672,-8.301,163.086,0.000
1586464768.613,-365.234,-50.293,-4.395,-129.395,0.000
1586464768.617,-47.852,-3.418,27.832,-242.676,0.000
1586464768.621,135.742,163.574,76.660,45.410,0.000
1586464768.625,-150.879,100.098,53.711,222.168,0.000
1586464768.628,-370.605,-116.211,-48.340,-23.926,0.000
1586464768.632,-113.281,-386.230,-232.422,-230.957,0.000
1586464768.636,164.551,-38.574,-28.809,-43.945,0.000
1586464768.640,-2.930,384.766,149.414,199.219,0.000
1586464768.644,-285.645,-151.367,-208.008,52.734,0.000
1586464768.648,-151.855,-708.496,-352.051,-203.613,0.000
1586464768.652,156.250,43.945,65.430,-161.133,0.000
1586464768.656,113.281,760.742,245.117,126.953,0.000
1586464768.660,-195.312,99.609,-129.395,110.352,0.000
1586464768.664,-188.965,-494.141,-439.941,-176.758,0.000
1586464768.668,150.391,-20.508,-84.473,-227.539,0.000
1586464768.671,247.070,699.219,265.625,73.730,0.000
1586464768.675,-55.664,205.566,-114.258,188.477,0.000
1586464768.679,-178.223,-668.457,-483.887,-77.637,0.000
1586464768.683,124.512,-330.566,-175.293,-235.352,0.000
1586464768.687,317.871,521.973,198.730,12.695,0.000
1586464768.691,93.750,-20.996,-168.945,235.352,0.000
1586464768.695,-136.719,-868.164,-553.711,24.414,0.000
1586464768.699,37.598,-171.387,-126.953,-249.512,0.000
1586464768.703,327.148,469.727,121.094,-83.008,0.000
1586464768.707,186.035,324.707,-18.555,210.449,0.000
1586464768.711,-140.625,-108.887,-270.996,76.660,0.000
1586464768.714,-55.176,-320.801,-340.332,-212.891,0.000
1586464768.718,266.602,-76.660,-173.340,-168.457,0.000
1586464768.722,244.141,155.273,-48.340,137.695,0.000
1586464768.726,-109.375,-333.984,-292.480,131.348,0.000
1586464768.730,-164.551,-725.586,-451.172,-174.316,0.000
1586464768.734,168.457,-290.039,-261.230,-244.629,0.000
1586464768.738,284.180,-259.766,-232.910,90.332,0.000
1586464768.742,-51.758,-309.082,-142.090,195.312,0.000
1586464768.746,-243.164,102.539,37.109,-101.562,0.000
1586464768.750,52.734,43.945,-66.895,-256.348,0.000
1586464768.753,294.922,246.094,11.230,10.742,0.000
1586464768.757,51.270,456.055,83.496,230.469,0.000
1586464768.761,-229.004,-97.168,-272.949,12.207,0.000
1586464768.765,-28.320,-505.371,-436.523,-239.258,0.000
1586464768.769,288.574,69.336,-78.613,-112.305,0.000
1586464768.773,166.504,263.184,28.809,198.242,0.000
1586464768.777,-178.711,-295.410,-284.180,100.098,0.000
1586464768.781,-106.445,-692.383,-445.801,-197.266,0.000
1586464768.785,250.488,-522.949,-230.469,-169.922,0.000
1586464768.789,252.441,320.312,149.414,115.723,0.000
1586464768.793,-104.980,307.129,18.066,144.043,0.000
1586464768.796,-176.270,-308.105,-286.133,-153.320,0.000
1586464768.800,145.020,0.000,-104.980,-275.391,0.000
1586464768.804,278.809,709.473,211.426,23.926,0.000
1586464768.808,-30.273,187.012,-108.887,190.918,0.000
1586464768.812,-265.137,-396.484,-356.934,-80.078,0.000
1586464768.816,-14.648,8.301,-29.785,-284.668,0.000
1586464768.820,245.605,375.488,126.465,-45.410,0.000
1586464768.824,20.996,269.531,55.176,197.266,0.000
1586464768.828,-264.648,-605.957,-406.250,46.387,0.000
1586464768.832,-121.094,-664.551,-342.285,-221.680,0.000
1586464768.836,166.016,483.398,209.473,-156.250,0.000
1586464768.839,71.777,498.047,81.055,165.039,0.000
1586464768.843,-291.016,-198.730,-228.516,100.586,0.000
1586464768.847,-286.133,-213.379,-198.242,-228.027,0.000
1586464768.851,54.688,285.156,97.656,-228.516,0.000
1586464768.855,92.773,334.961,63.477,115.234,0.000
1586464768.859,-275.391,-120.605,-180.664,161.621,0.000
1586464768.863,-395.508,-257.812,-252.441,-135.742,0.000
1586464768.867,-77.148,-65.430,-94.727,-241.211,0.000
1586464768.871,109.375,-62.988,-39.062,63.477,0.000
1586464768.875,-182.129,-507.324,-270.996,226.074,0.000
1586464768.878,-467.285,-314.941,-181.152,-69.336,0.000
1586464768.882,-258.789,160.645,45.898,-295.410,0.000
1586464768.886,25.879,287.598,74.219,-72.754,0.000
1586464768.890,-167.969,242.676,34.180,184.082,0.000
1586464768.894,-502.930,59.570,-69.824,0.000,0.000
1586464768.898,-368.652,-72.266,-236.328,-291.016,0.000
1586464768.902,-18.066,41.504,-188.477,-206.055,0.000
1586464768.906,-98.145,352.051,60.547,86.914,0.000
1586464768.910,-468.750,292.969,19.531,-9.277,0.000
1586464768.914,-478.516,-221.191,-313.477,-320.801,0.000
1586464768.918,-150.879,-653.809,-376.953,-344.727,0.000
1586464768.921,-126.465,-65.430,-17.578,-83.008,0.000
1586464768.925,-524.902,616.211,153.320,-41.504,0.000
1586464768.929,-675.293,17.578,-222.656,-326.172,0.000
1586464768.933,-368.164,20.020,-143.555,-473.633,0.000
1586464768.937,-159.180,802.734,220.703,-202.148,0.000
1586464768.941,-418.945,880.371,165.527,-6.836,0.000
1586464768.945,-659.668,98.145,-242.188,-232.910,0.000
1586464768.949,-443.359,-142.090,-257.812,-479.492,0.000
1586464768.953,-163.086,471.191,132.324,-305.176,0.000
1586464768.957,-303.223,399.902,107.422,1.953,0.000
1586464768.961,-588.867,-517.578,-347.168,-90.820,0.000
1586464768.964,-465.820,-915.527,-500.000,-357.422,0.000
1586464768.968,-122.559,-153.320,20.508,-330.078,0.000
1586464768.972,-120.605,329.102,194.824,-4.883,0.000
1586464768.976,-409.180,-453.613,-231.445,30.762,0.000
1586464768.980,-405.273,-904.785,-411.133,-262.207,0.000
1586464768.984,-48.340,-185.059,28.320,-350.586,0.000
1586464768.988,100.098,252.441,206.543,-21.484,0.000
1586464768.992,-187.988,-298.340,-91.309,130.859,0.000
1586464768.996,-338.867,-972.656,-417.480,-123.535,0.000
1586464769.000,-40.039,-645.020,-148.438,-297.852,0.000
1586464769.003,217.773,8.301,157.715,-35.156,0.000
1586464769.007,13.672,-470.215,-146.484,223.633,0.000
1586464769.011,-262.207,-1000.000,-391.602,12.207,0.000
1586464769.015,-80.078,-826.172,-333.496,-251.953,0.000
1586464769.019,250.000,-508.789,-146.973,-89.355,0.000
1586464769.023,122.070,-500.977,-108.398,222.656,0.000
1586464769.027,-239.258,-600.098,-210.449,120.117,0.000
1586464769.031,-181.641,-402.832,-133.301,-198.242,0.000
1586464769.035,179.688,-259.766,-34.668,-183.594,0.000
1586464769.039,207.520,-611.328,-155.762,178.223,0.000
1586464769.043,-191.895,-625.488,-91.797,179.688,0.000
1586464769.046,-292.480,-419.434,-44.922,-155.273,0.000
1586464769.050,88.379,-459.473,-102.051,-224.121,0.000
1586464769.054,263.184,-415.039,-34.180,110.840,0.000
1586464769.058,-50.293,-472.168,-34.668,266.113,0.000
1586464769.062,-272.949,-539.062,-140.625,-10.254,0.000
1586464769.066,-20.996,-774.414,-308.594,-189.453,0.000
1586464769.070,266.113,-764.160,-189.453,62.500,0.000
1586464769.074,97.168,-409.668,-11.230,289.062,0.000
1586464769.078,-190.430,-672.363,-306.152,100.586,0.000
1586464769.082,-55.176,-809.082,-305.664,-187.012,0.000
1586464769.086,287.598,-237.793,57.617,-88.379,0.000
1586464769.089,235.352,-61.523,60.547,239.258,0.000
1586464769.093,-89.844,-683.105,-312.012,161.621,0.000
1586464769.097,-61.035,-823.242,-369.629,-163.574,0.000
1586464769.101,288.086,-508.301,-164.062,-173.340,0.000
1586464769.105,340.820,-57.129,84.961,156.250,0.000
1586464769.109,7.812,-246.094,-101.074,228.516,0.000
1586464769.113,-79.590,-901.367,-479.980,-58.105,0.000
1586464769.117,236.328,-531.738,-170.410,-210.449,0.000
1586464769.121,413.574,257.324,193.359,58.105,0.000
1586464769.125,162.109,-48.340,-29.297,254.395,0.000
1586464769.128,-62.988,-754.395,-383.789,16.113,0.000
1586464769.132,145.996,-674.316,-318.848,-217.773,0.000
1586464769.136,409.668,90.820,107.422,-20.508,0.000
1586464769.140,233.887,8.789,0.977,280.762,0.000
1586464769.144,-86.914,-815.430,-428.711,120.605,0.000
1586464769.148,12.207,-860.840,-370.605,-205.078,0.000
1586464769.152,335.449,-353.516,-20.996,-131.836,0.000
1586464769.156,292.480,-353.027,-97.656,209.961,0.000
1586464769.160,-83.496,-888.184,-432.617,168.945,0.000
1586464769.164,-135.254,-617.188,-250.488,-198.242,0.000
1586464769.168,201.172,-201.660,-69.336,-254.883,0.000
1586464769.171,273.438,-38.574,101.562,88.379,0.000
1586464769.175,-100.586,-129.883,72.754,181.641,0.000
1586464769.179,-287.598,-321.777,-62.988,-118.164,0.000
1586464769.183,1.465,-492.676,-222.168,-266.113,0.000
1586464769.187,197.754,-306.641,-105.957,14.648,0.000
1586464769.191,-91.309,-353.027,-92.773,228.027,0.000
1586464769.195,-346.680,-877.930,-395.508,-7.812,0.000
1586464769.199,-116.211,-819.336,-326.660,-269.043,0.000
1586464769.203,192.871,-706.543,-249.023,-79.590,0.000
1586464769.207,16.113,-587.402,-143.066,212.891,0.000
1586464769.211,-341.309,-378.906,-51.758,71.289,0.000
1586464769.214,-227.051,-599.609,-300.781,-201.172,0.000
1586464769.218,145.996,-416.504,-195.312,-155.762,0.000
1586464769.222,96.680,-41.992,90.332,145.020,0.000
1586464769.226,-330.566,-219.727,-89.355,113.281,0.000
1586464769.230,-388.672,-767.578,-429.199,-210.938,0.000
1586464769.234,-23.438,-555.176,-203.125,-286.621,0.000
1586464769.238,106.934,126.465,146.973,49.805,0.000
1586464769.242,-204.102,-243.164,-102.051,200.684,0.000
1586464769.246,-376.953,-903.320,-501.953,-87.402,0.000
1586464769.250,-77.148,-777.344,-383.789,-283.203,0.000
1586464769.253,158.691,67.871,125.488,-24.902,0.000
1586464769.257,-85.449,222.656,83.496,222.168,0.000
1586464769.261,-336.426,-613.281,-350.098,8.789,0.000
1586464769.265,-119.141,-821.777,-399.902,-287.109,0.000
1586464769.269,185.547,-78.613,-34.180,-169.434,0.000
1586464769.273,26.855,271.484,136.230,153.320,0.000
1586464769.277,-318.359,-536.133,-388.672,110.352,0.000
1586464769.281,-241.699,-863.281,-517.090,-209.961,0.000
1586464769.285,114.258,-161.133,-14.648,-253.418,0.000
1586464769.289,140.625,-121.582,-2.441,118.652,0.000
1586464769.293,-222.656,-736.816,-398.926,190.918,0.000
1586464769.296,-324.219,-876.465,-477.539,-147.461,0.000
1586464769.300,8.301,-113.281,-19.531,-286.621,0.000
1586464769.304,169.922,339.844,138.184,45.410,0.000
1586464769.308,-140.137,-270.020,-171.387,215.820,0.000
1586464769.312,-352.539,-541.992,-292.969,-77.148,0.000
1586464769.316,-97.168,0.977,-11.230,-321.289,0.000
1586464769.320,157.227,248.047,119.629,-82.031,0.000
1586464769.324,-68.848,-18.555,11.719,211.426,0.000
1586464769.328,-386.230,-339.844,-180.176,8.789,0.000
1586464769.332,-217.773,-352.539,-257.812,-294.922,0.000
1586464769.336,150.391,-347.656,-222.168,-157.715,0.000
1586464769.339,72.266,-426.758,-131.836,189.941,0.000
1586464769.343,-290.527,-486.816,-183.105,96.680,0.000
1586464769.347,-251.465,-452.637,-212.891,-245.117,0.000
1586464769.351,108.887,-457.031,-174.316,-247.070,0.000
1586464769.355,141.113,-518.066,-167.480,119.629,0.000
1586464769.359,-244.629,-114.746,64.941,170.898,0.000
1586464769.363,-354.492,-339.844,-228.516,-167.969,0.000
1586464769.367,-15.625,-519.043,-310.059,-328.613,0.000
1586464769.371,161.621,-318.848,-85.938,-18.555,0.000
1586464769.375,-143.555,-245.605,-47.363,185.547,0.000
1586464769.378,-397.461,-421.387,-257.324,-86.426,0.000
1586464769.382,-157.227,-743.164,-393.555,-326.660,0.000
1586464769.386,98.145,-423.828,-134.766,-119.629,0.000
1586464769.390,-131.348,21.973,82.520,167.969,0.000
1586464769.394,-479.004,-361.816,-169.922,13.184,0.000
1586464769.398,-363.770,-908.203,-485.352,-271.484,0.000
1586464769.402,-44.434,-531.738,-154.785,-218.262,0.000
1586464769.406,-86.914,104.980,169.434,108.887,0.000
1586464769.410,-389.160,-363.770,-165.527,107.422,0.000
1586464769.414,-402.832,-909.668,-456.543,-233.398,0.000
1586464769.418,-85.449,-357.422,-70.312,-303.711,0.000
1586464769.421,12.207,59.082,185.547,45.410,0.000
1586464769.425,-320.801,-528.809,-213.867,153.809,0.000
1586464769.429,-477.539,-1000.000,-536.133,-154.785,0.000
1586464769.433,-173.340,-806.641,-221.680,-334.961,0.000
1586464769.437,51.270,-99.609,187.500,-71.777,0.000
1586464769.441,-174.316,-389.160,-142.090,185.547,0.000
1586464769.445,-418.457,-1000.000,-528.809,-28.809,0.000
1586464769.449,-208.496,-704.102,-221.680,-350.586,0.000
1586464769.453,125.977,-227.051,47.363,-190.430,0.000
1586464769.457,-20.020,-293.457,2.930,145.996,0.000
1586464769.461,-382.324,-721.680,-299.805,37.598,0.000
1586464769.464,-294.922,-912.598,-368.652,-279.297,0.000
1586464769.468,68.359,-679.688,-228.516,-237.305,0.000
1586464769.472,70.801,-469.727,-74.219,148.926,0.000
1586464769.476,-275.391,-834.473,-268.066,182.129,0.000
1586464769.480,-319.824,-1000.000,-398.926,-171.875,0.000
1586464769.484,0.488,-764.160,-277.344,-272.949,0.000
1586464769.488,110.840,-797.363,-335.938,93.750,0.000
1586464769.492,-213.379,-743.652,-192.383,248.535,0.000
1586464769.496,-397.949,-470.215,21.973,-74.219,0.000
1586464769.500,-81.543,-701.660,-223.633,-271.973,0.000
1586464769.503,201.172,-610.840,-146.973,0.000,0.000
1586464769.507,-27.344,-179.199,133.789,258.301,0.000
1586464769.511,-292.969,-473.145,-87.891,60.059,0.000
1586464769.515,-98.145,-842.285,-346.680,-235.352,0.000
1586464769.519,213.867,-610.840,-199.219,-102.539,0.000
1586464769.523,96.191,-432.617,10.742,226.562,0.000
1586464769.527,-257.324,-830.078,-253.418,150.879,0.000
1586464769.531,-174.805,-1000.000,-527.832,-165.527,0.000
1586464769.535,155.273,-774.902,-359.375,-183.594,0.000
1586464769.539,133.789,-122.070,102.539,154.785,0.000
1586464769.543,-197.754,-447.266,-138.672,225.098,0.000
1586464769.546,-292.969,-985.352,-454.102,-104.004,0.000
1586464769.550,3.906,-558.594,-161.133,-253.418,0.000
1586464769.554,153.809,81.055,157.715,62.500,0.000
1586464769.558,-127.441,-243.652,-83.496,278.320,0.000
1586464769.562,-329.102,-872.559,-401.855,5.859,0.000
1586464769.566,-100.586,-607.422,-245.117,-257.324,0.000
1586464769.570,144.043,-271.973,-159.668,-29.785,0.000
1586464769.574,-81.055,-309.570,-202.637,263.184,0.000
1586464769.578,-386.230,-727.539,-371.094,95.215,0.000
1586464769.582,-234.375,-633.789,-219.727,-236.328,0.000
1586464769.586,92.773,77.148,102.539,-138.184,0.000
1586464769.589,36.621,-67.383,-81.543,254.395,0.000
1586464769.593,-316.406,-768.066,-381.348,196.289,0.000
1586464769.597,-333.496,-717.773,-344.727,-193.359,0.000
1586464769.601,3.418,-147.949,-103.027,-248.047,0.000
1586464769.605,92.773,23.438,13.672,136.230,0.000
1586464769.609,-236.328,-262.207,-154.785,229.004,0.000
1586464769.613,-347.168,-353.027,-238.281,-104.004,0.000
1586464769.617,-35.645,-331.543,-268.066,-251.465,0.000
1586464769.621,141.113,-321.777,-239.746,77.148,0.000
1586464769.625,-133.301,-221.680,-87.891,287.598,0.000
1586464769.628,-389.648,-178.223,-98.145,4.395,0.000
1586464769.632,-147.949,-109.863,-154.297,-262.207,0.000
1586464769.636,159.180,-235.352,-163.086,-33.203,0.000
1586464769.640,-19.043,-512.207,-182.617,289.551,0.000
1586464769.644,-358.398,-146.484,13.672,105.469,0.000
1586464769.648,-227.539,-79.590,-85.449,-227.539,0.000
1586464769.652,130.859,-79.590,-111.328,-157.715,0.000
1586464769.656,91.797,148.926,34.180,207.031,0.000
1586464769.660,-279.785,-75.195,-163.574,193.848,0.000
1586464769.664,-299.805,-425.293,-390.137,-156.738,0.000
1586464769.668,65.430,-706.055,-386.719,-219.727,0.000
1586464769.671,128.418,-316.895,-142.578,125.000,0.000
1586464769.675,-226.562,306.152,83.984,234.863,0.000
1586464769.679,-367.188,-134.277,-255.371,-65.430,0.000
1586464769.683,-83.008,-133.301,-172.363,-271.484,0.000
1586464769.687,135.254,366.699,120.605,17.090,0.000
1586464769.691,-123.535,360.352,67.383,261.230,0.000
1586464769.695,-358.887,-271.973,-306.641,35.156,0.000
1586464769.699,-128.906,-404.297,-291.992,-252.441,0.000
1586464769.703,97.168,331.055,136.719,-118.652,0.000
1586464769.707,-62.012,577.148,157.227,231.445,0.000
1586464769.711,-304.199,-312.012,-322.266,135.742,0.000
1586464769.714,-213.379,-904.297,-597.168,-216.309,0.000
1586464769.718,56.152,-180.176,-127.930,-216.309,0.000
1586464769.722,33.691,438.477,146.973,141.602,0.000
1586464769.726,-280.273,-218.262,-174.805,189.941,0.000
1586464769.730,-285.156,-533.203,-312.988,-167.969,0.000
1586464769.734,32.715,150.391,-14.160,-295.410,0.000
1586464769.738,129.883,507.324,147.461,54.688,0.000
1586464769.742,-139.648,98.633,-85.449,228.516,0.000
1586464769.746,-272.461,-529.785,-365.723,-50.781,0.000
1586464769.750,18.555,-351.562,-229.004,-291.504,0.000
1586464769.753,250.977,230.957,59.570,-33.691,0.000
1586464769.757,16.602,65.918,-59.082,253.418,0.000
1586464769.761,-243.164,-432.617,-327.148,34.180,0.000
1586464769.765,-39.551,-230.469,-250.000,-291.992,0.000
1586464769.769,272.949,271.973,12.695,-153.809,0.000
1586464769.773,175.293,-110.840,-103.027,231.934,0.000
1586464769.777,-151.855,-470.215,-312.500,130.859,0.000
1586464769.781,-105.469,32.715,-64.453,-236.816,0.000
1586464769.785,242.676,176.758,25.391,-230.957,0.000
1586464769.789,271.973,176.270,-14.648,131.836,0.000
1586464769.793,-74.219,173.828,31.250,185.547,0.000
1586464769.796,-162.598,3.418,-18.066,-163.086,0.000
1586464769.800,163.086,-55.664,-54.688,-287.598,0.000
1586464769.804,313.477,-65.430,-66.895,68.848,0.000
1586464769.808,-8.789,-136.230,-57.129,239.258,0.000
1586464769.812,-232.910,-206.055,-192.383,-60.547,0.000
1586464769.816,54.199,-439.941,-378.418,-292.969,0.000
1586464769.820,324.707,-500.000,-244.141,-35.156,0.000
1586464769.824,77.637,174.316,133.789,239.258,0.000
1586464769.828,-233.398,140.137,0.000,35.645,0.000
1586464769.832,-71.777,-395.996,-299.805,-278.320,0.000
1586464769.836,258.301,-53.223,-55.664,-167.480,0.000
1586464769.839,170.898,260.742,107.422,200.684,0.000
1586464769.843,-168.457,-294.434,-237.793,163.086,0.000
1586464769.847,-144.043,-469.238,-345.215,-205.078,0.000
1586464769.851,199.707,-135.742,-170.898,-257.324,0.000
1586464769.855,257.324,229.980,81.543,115.723,0.000
1586464769.859,-71.777,207.520,32.227,198.730,0.000
1586464769.863,-148.926,-580.566,-364.746,-96.680,0.000
1586464769.867,166.504,-449.707,-211.426,-273.438,0.000
1586464769.871,328.125,594.727,232.910,-0.977,0.000
1586464769.875,67.871,354.492,52.246,244.629,0.000
1586464769.878,-157.715,-242.676,-202.637,-0.977,0.000
1586464769.882,60.547,22.461,0.977,-302.734,0.000
1586464769.886,342.285,408.691,130.859,-105.957,0.000
1586464769.890,185.059,167.969,-16.113,237.793,0.000
1586464769.894,-112.793,-297.363,-236.328,88.379,0.000
1586464769.898,27.832,-361.816,-307.617,-242.188,0.000
1586464769.902,335.938,-13.672,-105.957,-187.012,0.000
1586464769.906,256.836,-55.176,-104.980,185.059,0.000
1586464769.910,-91.309,-594.238,-334.473,186.035,0.000
1586464769.914,-124.512,-235.840,-71.777,-204.102,0.000
1586464769.918,197.266,331.055,124.512,-288.086,0.000
1586464769.921,279.785,375.488,117.188,94.238,0.000
1586464769.925,-53.711,115.234,17.090,229.004,0.000
1586464769.929,-206.055,-53.223,-173.828,-97.656,0.000
1586464769.933,88.867,-150.391,-252.930,-307.617,0.000
1586464769.937,294.434,147.949,45.898,-17.090,0.000
1586464769.941,32.715,310.059,119.629,242.188,0.000
1586464769.945,-214.844,-317.383,-298.828,1.465,0.000
1586464769.949,-20.020,-586.426,-392.090,-292.480,0.000
1586464769.953,233.398,-90.820,-88.867,-119.141,0.000
1586464769.957,47.852,363.281,127.441,195.312,0.000
1586464769.961,-297.852,305.664,95.703,62.988,0.000
1586464769.964,-191.406,-39.551,-80.078,-272.949,0.000
1586464769.968,157.715,-386.719,-186.035,-226.562,0.000
1586464769.972,148.926,97.656,74.707,142.090,0.000
1586464769.976,-194.336,378.418,104.004,133.789,0.000
1586464769.980,-222.656,-166.504,-215.332,-200.684,0.000
1586464769.984,115.723,-126.953,-175.781,-309.570,0.000
1586464769.988,217.285,401.367,134.766,17.090,0.000
1586464769.992,-97.656,167.480,6.836,203.125,0.000
1586464769.996,-241.211,-656.250,-456.055,-73.730,0.000
1586464770.000,52.734,-638.672,-338.379,-312.012,0.000
1586464770.003,239.258,455.078,211.426,-73.242,0.000
1586464770.007,-20.996,567.383,127.441,214.844,0.000
1586464770.011,-267.578,-536.621,-385.742,30.762,0.000
1586464770.015,-83.008,-705.078,-322.754,-287.598,0.000
1586464770.019,196.289,355.469,188.965,-175.293,0.000
1586464770.023,72.266,630.859,158.203,188.965,0.000
1586464770.027,-230.957,-189.453,-234.863,106.934,0.000
1586464770.031,-151.855,-550.781,-342.285,-241.699,0.000
1586464770.035,164.062,63.477,-8.789,-248.047,0.000
1586464770.039,176.758,270.996,103.516,110.840,0.000
1586464770.043,-127.441,-489.258,-300.781,202.148,0.000
1586464770.046,-199.707,-696.777,-400.391,-142.090,0.000
1586464770.050,104.492,179.199,41.992,-322.266,0.000
1586464770.054,268.066,467.773,94.238,23.926,0.000
1586464770.058,-23.438,103.027,-20.020,227.051,0.000
1586464770.062,-244.141,-203.125,-192.871,-62.988,0.000
1586464770.066,30.762,-169.434,-278.320,-330.566,0.000
1586464770.070,312.012,2.930,-97.656,-83.008,0.000
1586464770.074,90.820,126.953,59.082,223.633,0.000
1586464770.078,-204.590,32.227,-5.859,22.949,0.000
1586464770.082,-36.621,-125.977,-125.977,-302.246,0.000
1586464770.086,291.504,-309.570,-306.152,-176.270,0.000
1586464770.089,203.613,-267.578,-157.227,193.848,0.000
1586464770.093,-176.270,-73.242,-20.508,114.746,0.000
1586464770.097,-176.270,-25.391,-84.473,-240.234,0.000
1586464770.101,180.664,-228.027,-171.387,-249.512,0.000
1586464770.105,222.656,-131.836,-104.492,112.305,0.000
1586464770.109,-140.625,154.297,88.379,177.246,0.000
1586464770.113,-259.277,-183.105,-144.531,-136.230,0.000
1586464770.117,69.824,-217.285,-204.102,-296.387,0.000
1586464770.121,228.516,-51.270,-38.086,5.859,0.000
1586464770.125,-80.566,-228.516,-100.098,232.422,0.000
1586464770.128,-273.926,-422.852,-311.523,-25.879,0.000
1586464770.132,-32.715,-471.680,-319.336,-310.547,0.000
1586464770.136,224.609,-7.324,-0.488,-110.840,0.000
1586464770.140,37.598,417.480,172.363,204.102,0.000
1586464770.144,-261.230,-104.980,-197.266,57.617,0.000
1586464770.148,-112.305,-786.621,-452.148,-257.812,0.000
1586464770.152,193.359,-284.180,-42.480,-217.285,0.000
1586464770.156,108.398,562.012,241.211,123.047,0.000
1586464770.160,-208.984,-63.965,-156.738,131.836,0.000
1586464770.164,-207.031,-635.742,-426.758,-208.984,0.000
1586464770.168,117.188,71.289,-5.371,-298.340,0.000
1586464770.171,206.543,687.988,261.719,69.824,0.000
1586464770.175,-111.816,157.227,-100.586,202.637,0.000
1586464770.179,-259.277,-673.340,-458.496,-111.816,0.000
1586464770.183,28.320,-627.441,-367.676,-319.824,0.000
1586464770.187,225.586,144.531,9.766,-53.223,0.000
1586464770.191,-33.203,-43.457,-107.422,213.867,0.000
1586464770.195,-276.367,-753.418,-474.121,-8.301,0.000
1586464770.199,-87.402,-171.875,-120.117,-330.566,0.000
1586464770.203,210.449,431.152,131.348,-161.133,0.000
1586464770.207,93.262,239.258,-8.301,193.359,0.000
1586464770.211,-261.230,-176.758,-225.586,49.316,0.000
1586464770.214,-196.289,-239.746,-278.809,-287.598,0.000
1586464770.218,166.016,-67.871,-185.547,-224.609,0.000
1586464770.222,137.695,237.793,74.219,141.113,0.000
1586464770.226,-217.285,-88.379,-117.188,166.504,0.000
1586464770.230,-260.742,-300.781,-313.965,-178.223,0.000
1586464770.234,78.613,241.211,-27.344,-302.246,0.000
1586464770.238,201.172,-49.805,-127.441,68.848,0.000
1586464770.242,-133.789,-497.070,-321.777,230.957,0.000
1586464770.246,-316.895,-158.203,-249.023,-106.934,0.000
1586464770.250,-34.180,44.434,-103.027,-323.730,0.000
1586464770.253,192.871,210.938,72.754,-42.480,0.000
1586464770.257,-43.457,290.039,84.961,215.332,0.000
1586464770.261,-295.410,29.297,-46.875,-8.301,0.000
1586464770.265,-107.910,-240.723,-255.371,-302.246,0.000
1586464770.269,187.012,47.363,-120.117,-152.832,0.000
1586464770.273,92.773,257.812,88.379,183.105,0.000
1586464770.277,-200.684,-146.484,-187.500,78.613,0.000
1586464770.281,-129.395,-503.418,-385.742,-261.719,0.000
1586464770.285,198.730,-1.465,-71.777,-256.348,0.000
1586464770.289,212.891,759.766,213.867,113.281,0.000
1586464770.293,-117.676,563.477,113.281,165.527,0.000
1586464770.296,-180.176,-380.371,-354.004,-161.133,0.000
1586464770.300,150.391,-746.094,-504.395,-290.039,0.000
1586464770.304,263.672,453.125,129.395,4.395,0.000
1586464770.308,-43.457,529.785,55.664,187.012,0.000
1586464770.312,-222.168,-84.473,-297.363,-83.984,0.000
1586464770.316,23.438,203.613,-120.117,-346.680,0.000
1586464770.320,248.535,557.617,94.238,-130.859,0.000
1586464770.324,41.504,518.066,44.922,138.672,0.000
1586464770.328,-243.164,-386.719,-387.207,-41.016,0.000
1586464770.332,-141.113,-472.656,-332.031,-372.559,0.000
1586464770.336,108.887,634.277,130.859,-325.684,0.000
1586464770.339,30.273,772.949,104.004,21.484,0.000
1586464770.343,-279.785,264.160,-141.113,-39.062,0.000
1586464770.347,-283.203,261.719,-74.707,-422.363,0.000
1586464770.351,34.668,796.387,182.129,-481.934,0.000
1586464770.355,111.328,837.891,142.578,-102.539,0.000
1586464770.359,-229.004,264.160,-40.527,7.324,0.000
1586464770.363,-361.816,16.113,-132.812,-336.914,0.000
1586464770.367,-13.672,77.148,-189.453,-502.930,0.000
1586464770.371,183.105,114.746,-176.758,-161.621,0.000
1586464770.375,-114.258,-199.219,-266.602,65.430,0.000
1586464770.378,-349.609,-120.605,-238.770,-209.473,0.000
1586464770.382,-104.004,233.398,1.465,-459.473,0.000
1586464770.386,175.293,364.258,111.816,-221.680,0.000
1586464770.390,-5.859,517.578,146.484,93.750,0.000
1586464770.394,-291.504,264.160,11.230,-65.430,0.000
1586464770.398,-140.137,-58.594,-87.402,-377.930,0.000
1586464770.402,215.332,22.949,81.055,-281.738,0.000
1586464770.406,162.109,245.117,180.176,80.566,0.000
1586464770.410,-171.387,31.250,39.551,51.270,0.000
1586464770.414,-156.738,-611.816,-289.062,-260.254,0.000
1586464770.418,150.391,-802.734,-286.621,-292.480,0.000
1586464770.421,232.910,-196.777,80.566,52.734,0.000
1586464770.425,-43.457,80.078,131.348,160.156,0.000
1586464770.429,-127.930,-368.652,-75.684,-135.742,0.000
1586464770.433,181.152,-878.418,-346.191,-270.508,0.000
1586464770.437,354.004,-475.098,-95.215,41.992,0.000
1586464770.441,107.910,210.938,251.953,271.973,0.000
1586464770.445,-118.164,-454.102,-154.785,40.527,0.000
1586464770.449,66.406,-791.504,-234.863,-255.371,0.000
1586464770.453,347.656,-170.410,140.137,-69.824,0.000
1586464770.457,216.797,199.707,232.422,258.301,0.000
1586464770.461,-79.102,-498.535,-209.473,145.020,0.000
1586464770.464,19.531,-896.484,-379.395,-156.250,0.000
1586464770.468,299.805,-147.949,144.043,-138.672,0.000
1586464770.472,259.766,328.613,244.141,225.098,0.000
1586464770.476,-48.340,-311.523,-74.219,254.883,0.000
1586464770.480,-100.586,-686.523,-139.160,-83.984,0.000
1586464770.484,165.527,-71.289,138.184,-193.848,0.000
1586464770.488,250.977,249.512,214.355,140.137,0.000
1586464770.492,-24.902,-282.715,-34.180,296.387,0.000
1586464770.496,-171.875,-939.941,-339.355,9.766,0.000
1586464770.500,81.055,-590.332,-113.281,-196.289,0.000
1586464770.503,295.410,190.918,212.891,72.266,0.000
1586464770.507,91.797,-117.188,-23.438,321.289,0.000
1586464770.511,-200.195,-731.934,-300.781,69.336,0.000
1586464770.515,-86.914,-349.609,-36.621,-238.770,0.000
1586464770.519,201.660,148.926,147.461,-75.195,0.000
1586464770.523,130.859,-369.141,-102.051,295.410,0.000
1586464770.527,-185.059,-629.883,-116.699,181.641,0.000
1586464770.531,-131.836,-243.164,36.133,-184.570,0.000
1586464770.535,225.098,-212.891,46.387,-156.738,0.000
1586464770.539,225.098,20.020,142.578,203.613,0.000
1586464770.543,-126.953,80.566,68.848,229.004,0.000
1586464770.546,-191.895,-144.531,-56.152,-104.980,0.000
1586464770.550,113.770,-190.918,-73.242,-222.168,0.000
1586464770.554,228.027,-142.090,-75.195,114.258,0.000
1586464770.558,-75.195,-100.098,-2.930,275.879,0.000
1586464770.562,-267.090,-157.715,-128.418,-19.043,0.000
1586464770.566,-3.418,-508.789,-387.695,-220.703,0.000
1586464770.570,230.957,-508.301,-250.488,31.738,0.000
1586464770.574,12.207,174.316,114.258,286.133,0.000
1586464770.578,-257.812,-49.316,-130.371,89.844,0.000
1586464770.582,-103.027,-475.098,-351.074,-223.145,0.000
1586464770.586,175.781,98.145,23.926,-115.723,0.000
1586464770.589,73.730,333.496,123.535,238.281,0.000
1586464770.593,-233.887,-333.008,-231.934,171.387,0.000
1586464770.597,-174.805,-663.086,-417.480,-159.180,0.000
1586464770.601,139.160,-269.043,-174.316,-192.871,0.000
1586464770.605,106.445,209.473,122.070,119.629,0.000
1586464770.609,-241.211,11.230,-68.359,175.781,0.000
1586464770.613,-331.055,-778.809,-515.137,-139.160,0.000
1586464770.617,-78.613,-457.520,-222.168,-328.613,0.000
1586464770.621,55.664,563.965,234.863,-40.039,0.000
1586464770.625,-210.938,258.789,-26.855,190.918,0.000
1586464770.628,-423.828,-402.344,-359.863,-85.938,0.000
1586464770.632,-189.941,-83.008,-111.328,-354.004,0.000
1586464770.636,103.027,545.410,192.871,-114.258,0.000
1586464770.640,-42.480,361.816,35.156,219.727,0.000
1586464770.644,-327.637,-297.852,-323.242,62.500,0.000
1586464770.648,-202.637,-475.098,-380.859,-259.766,0.000
1586464770.652,116.211,-115.723,-178.223,-162.598,0.000
1586464770.656,76.660,-159.668,-248.047,210.449,0.000
1586464770.660,-274.414,-777.832,-519.043,156.250,0.000
1586464770.664,-292.480,-540.527,-390.137,-213.379,0.000
1586464770.668,41.016,92.773,-76.172,-279.297,0.000
1586464770.671,105.469,358.887,116.699,85.449,0.000
1586464770.675,-204.102,228.027,22.949,193.848,0.000
1586464770.679,-303.711,24.414,-158.691,-150.879,0.000
1586464770.683,13.184,-104.004,-274.414,-322.266,0.000
1586464770.687,198.242,74.707,-132.812,2.930,0.000
1586464770.691,-81.055,245.605,18.066,230.957,0.000
1586464770.695,-347.656,-274.414,-254.883,-39.551,0.000
1586464770.699,-142.090,-310.059,-269.531,-325.195,0.000
1586464770.703,158.691,-305.664,-281.250,-91.309,0.000
1586464770.707,7.812,-406.738,-293.457,237.305,0.000
1586464770.711,-327.148,-184.082,-203.613,56.152,0.000
1586464770.714,-239.258,-292.969,-305.176,-259.766,0.000
1586464770.718,90.332,88.867,-88.867,-205.566,0.000
1586464770.722,57.617,492.676,102.539,144.043,0.000
1586464770.726,-269.531,156.250,-133.301,143.066,0.000
1586464770.730,-291.992,-339.355,-383.301,-191.895,0.000
1586464770.734,25.879,-69.336,-157.715,-271.484,0.000
1586464770.738,115.234,537.109,152.344,76.172,0.000
1586464770.742,-171.875,57.617,-150.391,233.398,0.000
1586464770.746,-312.012,-806.152,-567.871,-81.055,0.000
1586464770.750,-49.316,-571.289,-349.121,-315.430,0.000
1586464770.753,153.320,380.371,120.605,-48.828,0.000
1586464770.757,-83.008,526.367,116.699,210.449,0.000
1586464770.761,-300.781,-340.332,-356.445,-7.324,0.000
1586464770.765,-104.492,-765.625,-572.754,-287.598,0.000
1586464770.769,135.742,51.270,-56.641,-152.832,0.000
1586464770.773,27.832,440.430,94.727,175.781,0.000
1586464770.777,-279.785,-466.309,-360.840,95.703,0.000
1586464770.781,-225.586,-757.324,-445.312,-246.094,0.000
1586464770.785,98.633,113.281,-56.641,-238.770,0.000
1586464770.789,103.516,304.688,57.129,126.465,0.000
1586464770.793,-228.516,-548.828,-397.461,177.246,0.000
1586464770.796,-301.758,-700.195,-459.961,-175.781,0.000
1586464770.800,-11.230,181.641,-28.809,-337.891,0.000
1586464770.804,129.395,440.918,81.543,43.945,0.000
1586464770.808,-137.207,33.203,-154.297,237.305,0.000
1586464770.812,-333.008,-220.215,-329.102,-83.496,0.000
1586464770.816,-84.961,144.043,-64.453,-304.199,0.000
1586464770.820,188.477,372.559,57.617,-27.832,0.000
1586464770.824,-0.977,-84.961,-279.785,270.508,0.000
1586464770.828,-309.082,-415.527,-385.254,56.641,0.000
1586464770.832,-174.805,-137.207,-203.613,-270.020,0.000
1586464770.836,148.926,0.977,-162.109,-121.094,0.000
1586464770.839,73.730,-308.105,-237.793,232.422,0.000
1586464770.843,-271.973,-189.941,-205.078,132.812,0.000
1586464770.847,-251.953,18.066,-188.477,-224.121,0.000
1586464770.851,84.961,-28.320,-151.367,-225.098,0.000
1586464770.855,132.812,232.422,49.805,147.461,0.000
1586464770.859,-179.688,234.863,29.785,197.754,0.000
1586464770.863,-288.574,-297.363,-292.480,-120.117,0.000
1586464770.867,7.812,-376.465,-296.875,-265.137,0.000
1586464770.871,194.824,-94.238,-41.992,50.781,0.000
1586464770.875,-89.355,-27.344,-36.133,254.395,0.000
1586464770.878,-278.809,-288.574,-289.062,-22.461,0.000
1586464770.882,-14.648,-522.949,-346.680,-249.512,0.000
1586464770.886,194.336,-270.996,-145.996,-19.531,0.000
1586464770.890,-7.812,87.402,50.781,236.816,0.000
1586464770.894,-283.691,-54.688,-114.258,46.875,0.000
1586464770.898,-140.137,-601.562,-350.098,-256.348,0.000
1586464770.902,145.508,-173.340,-20.996,-166.992,0.000
1586464770.906,72.754,549.316,188.965,193.359,0.000
1586464770.910,-249.512,-15.137,-162.109,147.461,0.000
1586464770.914,-247.559,-487.793,-376.465,-225.586,0.000
1586464770.918,66.406,41.504,-61.523,-289.062,0.000
1586464770.921,137.207,500.488,151.855,83.008,0.000
1586464770.925,-169.434,77.637,-141.113,206.543,0.000
1586464770.929,-280.273,-634.277,-488.770,-118.164,0.000
1586464770.933,7.812,-319.336,-172.852,-314.941,0.000
1586464770.937,187.500,558.594,214.844,-13.184,0.000
1586464770.941,-65.430,70.801,-158.203,244.629,0.000
1586464770.945,-314.941,-933.594,-586.426,17.090,0.000
1586464770.949,-125.488,-323.242,-153.320,-300.781,0.000
1586464770.953,160.645,497.559,184.082,-124.512,0.000
1586464770.957,12.695,306.641,6.836,215.332,0.000
1586464770.961,-302.734,-185.059,-282.715,69.336,0.000
1586464770.964,-214.844,-333.496,-320.801,-265.625,0.000
1586464770.968,114.746,-95.215,-113.281,-202.637,0.000
1586464770.972,91.309,176.758,102.539,160.156,0.000
1586464770.976,-235.352,-294.922,-179.199,160.645,0.000
1586464770.980,-256.348,-530.762,-365.723,-178.223,0.000
1586464770.984,65.430,30.762,-56.641,-279.785,0.000
1586464770.988,178.223,-160.156,-104.492,91.309,0.000
1586464770.992,-148.438,-319.336,-128.906,216.309,0.000
1586464770.996,-312.988,-69.336,-121.582,-114.746,0.000
1586464771.000,-13.184,-158.691,-198.242,-297.852,0.000
1586464771.003,200.684,48.340,-14.160,-15.625,0.000
1586464771.007,-54.199,229.492,83.008,209.473,0.000
1586464771.011,-294.922,42.969,-19.043,-18.555,0.000
1586464771.015,-85.938,-229.980,-184.570,-285.645,0.000
1586464771.019,194.824,-26.367,-116.699,-122.070,0.000
1586464771.023,65.918,119.629,19.043,202.637,0.000
1586464771.027,-259.766,-153.320,-113.281,71.289,0.000
1586464771.031,-172.852,-532.715,-381.348,-243.652,0.000
1586464771.035,152.832,-646.484,-333.496,-212.402,0.000
1586464771.039,114.258,221.680,158.203,102.539,0.000
1586464771.043,-213.867,318.848,88.867,135.742,0.000
1586464771.046,-262.695,-314.453,-235.352,-188.477,0.000
1586464771.050,61.523,-68.359,-60.059,-287.109,0.000
1586464771.054,206.543,484.863,149.902,69.336,0.000
1586464771.058,-83.984,87.402,-121.582,211.426,0.000
1586464771.062,-294.434,-478.027,-340.820,-101.074,0.000
1586464771.066,-56.641,-218.750,-127.441,-307.129,0.000
1586464771.070,175.293,191.895,63.965,-37.598,0.000
1586464771.074,-46.875,15.625,-64.453,217.773,0.000
1586464771.078,-318.848,-673.828,-449.707,16.602,0.000
1586464771.082,-175.781,-663.086,-433.594,-289.551,0.000
1586464771.086,100.098,206.055,-14.160,-176.270,0.000
1586464771.089,3.906,371.582,49.316,167.480,0.000
1586464771.093,-310.059,-155.273,-243.164,99.609,0.000
1586464771.097,-266.602,-105.957,-216.797,-237.305,0.000
1586464771.101,68.848,408.691,68.848,-263.672,0.000
1586464771.105,129.395,368.652,44.922,110.840,0.000
1586464771.109,-209.473,18.066,-90.820,197.266,0.000
1586464771.113,-317.871,-135.254,-208.496,-125.977,0.000
1586464771.117,7.324,-92.773,-236.816,-278.320,0.000
1586464771.121,182.617,-97.656,-165.527,51.758,0.000
1586464771.125,-89.355,-590.332,-345.215,250.977,0.000
1586464771.128,-301.758,-448.242,-299.805,-44.434,0.000
1586464771.132,-55.664,28.320,-87.402,-285.645,0.000
1586464771.136,195.312,182.129,36.621,-73.242,0.000
1586464771.140,5.859,218.262,43.945,206.055,0.000
1586464771.144,-276.367,61.523,-51.758,32.715,0.000
1586464771.148,-124.023,-43.457,-135.742,-269.043,0.000
1586464771.152,197.754,-26.855,-128.906,-156.738,0.000
1586464771.156,140.625,108.887,6.348,187.988,0.000
1586464771.160,-179.199,160.645,30.762,116.211,0.000
1586464771.164,-172.852,-390.625,-317.871,-218.750,0.000
1586464771.168,149.902,-264.160,-195.801,-271.484,0.000
1586464771.171,218.750,431.152,150.879,77.637,0.000
1586464771.175,-80.078,155.273,-83.008,191.895,0.000
1586464771.179,-199.219,-541.992,-437.012,-116.211,0.000
1586464771.183,68.359,-439.453,-229.004,-287.109,0.000
1586464771.187,243.164,320.801,139.648,6.348,0.000
1586464771.191,-18.555,462.891,111.816,224.121,0.000
1586464771.195,-241.211,-208.496,-295.898,-16.113,0.000
1586464771.199,-24.414,-757.324,-430.664,-270.020,0.000
1586464771.203,217.285,-29.785,28.809,-93.750,0.000
1586464771.207,56.641,590.332,150.879,225.586,0.000
1586464771.211,-221.680,-317.871,-373.535,98.633,0.000
1586464771.214,-121.094,-840.332,-517.578,-236.328,0.000
1586464771.218,170.898,138.672,60.547,-206.055,0.000
1586464771.222,142.578,777.344,217.773,154.297,0.000
1586464771.226,-202.148,77.148,-85.938,156.250,0.000
1586464771.230,-246.094,-328.613,-276.367,-193.359,0.000
1586464771.234,87.891,5.371,-183.105,-268.555,0.000
1586464771.238,185.547,295.410,67.383,90.820,0.000
1586464771.242,-125.488,47.363,-49.805,219.727,0.000
1586464771.246,-271.484,-604.004,-413.574,-102.051,0.000
1586464771.250,8.301,-360.352,-202.637,-308.594,0.000
1586464771.253,212.402,293.457,132.324,-22.949,0.000
1586464771.257,-22.461,100.098,-38.086,238.770,0.000
1586464771.261,-269.043,-394.531,-317.383,11.230,0.000
1586464771.265,-99.121,-195.801,-206.543,-292.480,0.000
1586464771.269,193.359,338.867,73.242,-124.512,0.000
1586464771.273,80.078,-145.508,-124.023,242.676,0.000
1586464771.277,-262.695,-523.438,-303.223,107.910,0.000
1586464771.281,-201.172,122.559,11.230,-253.418,0.000
1586464771.285,140.137,254.395,58.105,-202.148,0.000
1586464771.289,146.973,179.199,4.395,154.785,0.000
1586464771.293,-193.359,-166.504,-172.363,174.316,0.000
1586464771.296,-261.719,-473.633,-330.078,-166.504,0.000
1586464771.300,80.078,-226.074,-255.371,-272.949,0.000
1586464771.304,207.031,-89.355,-157.227,60.059,0.000
1586464771.308,-120.117,-197.266,-144.043,195.801,0.000
1586464771.312,-294.922,-240.723,-277.344,-105.957,0.000
1586464771.316,4.395,-541.016,-413.086,-316.895,0.000
1586464771.320,225.586,-613.281,-272.949,-47.363,0.000
1586464771.324,-23.438,178.223,135.742,191.895,0.000
1586464771.328,-280.762,-21.973,-175.293,-7.812,0.000
1586464771.332,-124.512,-387.207,-338.867,-292.969,0.000
1586464771.336,160.645,242.188,79.102,-172.852,0.000
1586464771.339,76.660,292.480,-0.977,190.430,0.000
1586464771.343,-246.094,-431.152,-380.859,108.887,0.000
1586464771.347,-189.941,-485.840,-331.055,-207.031,0.000
1586464771.351,141.113,-62.500,-78.613,-193.359,0.000
1586464771.355,145.020,208.008,82.520,134.766,0.000
1586464771.359,-163.574,-132.812,-183.594,189.941,0.000
1586464771.363,-260.742,-563.477,-365.234,-157.715,0.000
1586464771.367,28.320,-167.969,-81.055,-299.316,0.000
1586464771.371,172.363,559.082,169.922,28.809,0.000
1586464771.375,-97.168,405.762,5.859,211.914,0.000
1586464771.378,-270.996,-560.059,-360.352,-47.363,0.000
1586464771.382,-48.340,-277.344,-73.242,-309.570,0.000
1586464771.386,194.824,647.949,220.703,-83.008,0.000
1586464771.390,29.785,289.551,-1.953,243.164,0.000
1586464771.394,-265.625,-444.824,-343.750,43.945,0.000
1586464771.398,-140.625,-489.258,-356.445,-276.855,0.000
1586464771.402,166.016,195.312,56.641,-179.199,0.000
1586464771.406,123.047,275.879,17.090,172.852,0.000
1586464771.410,-194.336,-671.875,-398.926,143.555,0.000
1586464771.414,-237.793,-353.027,-114.746,-239.746,0.000
1586464771.418,87.891,435.547,144.043,-281.250,0.000
1586464771.421,165.039,469.238,124.023,98.633,0.000
1586464771.425,-154.297,144.043,3.418,187.012,0.000
1586464771.429,-269.531,-19.043,-195.312,-145.508,0.000
1586464771.433,12.207,-80.078,-268.066,-311.523,0.000
1586464771.437,182.617,177.246,44.434,10.742,0.000
1586464771.441,-83.008,308.105,92.773,225.586,0.000
1586464771.445,-299.316,-351.562,-292.969,-40.527,0.000
1586464771.449,-92.773,-434.570,-304.688,-301.758,0.000
1586464771.453,185.059,-356.445,-240.234,-64.941,0.000
1586464771.457,17.578,-137.207,-42.969,236.816,0.000
1586464771.461,-300.781,198.730,75.684,52.734,0.000
1586464771.464,-172.852,-124.512,-161.621,-258.789,0.000
1586464771.468,171.387,-351.074,-255.859,-185.547,0.000
1586464771.472,135.254,227.051,98.145,148.926,0.000
1586464771.476,-226.562,382.812,112.305,127.441,0.000
1586464771.480,-254.883,-208.984,-224.121,-195.312,0.000
1586464771.484,87.891,-72.266,-130.371,-268.066,0.000
1586464771.488,174.316,499.512,170.898,75.195,0.000
1586464771.492,-144.043,137.207,-59.082,196.777,0.000
1586464771.496,-273.438,-707.031,-490.234,-100.586,0.000
1586464771.500,2.441,-707.031,-418.945,-286.133,0.000
1586464771.503,191.406,53.711,6.836,-22.461,0.000
1586464771.507,-53.711,168.457,20.996,199.219,0.000
1586464771.511,-303.223,-357.910,-257.812,-40.039,0.000
1586464771.515,-99.121,-365.234,-182.617,-311.523,0.000
1586464771.519,170.898,372.559,174.316,-148.438,0.000
1586464771.523,37.109,501.953,145.020,186.523,0.000
1586464771.527,-252.930,-275.391,-217.773,107.422,0.000
1586464771.531,-177.734,-594.727,-319.824,-216.309,0.000
1586464771.535,137.695,112.305,34.180,-233.887,0.000
1586464771.539,153.809,312.988,67.871,135.254,0.000
1586464771.543,-154.785,-467.285,-276.855,198.730,0.000
1586464771.546,-209.473,-499.023,-291.992,-139.648,0.000
1586464771.550,103.516,258.301,29.297,-263.672,0.000
1586464771.554,237.793,586.426,124.512,100.098,0.000
1586464771.558,-50.781,-274.414,-251.465,288.086,0.000
1586464771.562,-231.934,-657.227,-374.512,-33.203,0.000
1586464771.566,22.461,115.234,-64.941,-273.926,0.000
1586464771.570,247.070,396.973,100.586,-4.883,0.000
1586464771.574,44.434,186.523,21.973,252.930,0.000
1586464771.578,-212.891,9.766,-56.641,32.227,0.000
1586464771.582,-63.965,179.199,27.832,-262.695,0.000
1586464771.586,255.859,119.141,-40.039,-101.074,0.000
1586464771.589,155.762,-338.867,-248.047,265.137,0.000
1586464771.593,-205.566,-220.215,-212.402,155.273,0.000
1586464771.597,-153.809,20.020,-186.523,-195.801,0.000
1586464771.601,178.223,20.996,-109.863,-187.012,0.000
1586464771.605,194.336,291.016,68.359,163.574,0.000
1586464771.609,-130.371,334.961,55.664,198.730,0.000
1586464771.613,-212.891,-54.199,-210.449,-124.023,0.000
1586464771.617,101.562,-44.434,-225.586,-242.188,0.000
1586464771.621,252.930,83.984,-40.527,68.359,0.000
1586464771.625,-57.617,84.961,31.250,215.332,0.000
1586464771.628,-263.672,-74.219,-185.059,-58.105,0.000
1586464771.632,-4.883,-397.461,-373.047,-269.043,0.000
1586464771.636,229.492,83.008,13.184,-35.156,0.000
1586464771.640,14.648,446.777,126.465,242.676,0.000
1586464771.644,-258.301,-189.453,-260.742,58.105,0.000
1586464771.648,-101.562,-674.805,-361.816,-255.859,0.000
1586464771.652,193.848,-25.391,27.832,-160.156,0.000
1586464771.656,109.863,665.039,181.152,185.059,0.000
1586464771.660,-219.727,-24.414,-199.707,136.719,0.000
1586464771.664,-207.520,-463.379,-378.418,-195.312,0.000
1586464771.668,126.465,138.184,-12.207,-251.953,0.000
1586464771.671,189.453,628.418,225.098,100.586,0.000
1586464771.675,-122.070,124.512,-145.996,217.773,0.000
1586464771.679,-225.586,-692.383,-520.508,-112.305,0.000
1586464771.683,56.641,-391.113,-261.719,-293.945,0.000
1586464771.687,212.402,478.027,160.645,4.883,0.000
1586464771.691,-49.805,34.668,-140.137,230.469,0.000
1586464771.695,-278.809,-801.270,-515.137,-17.090,0.000
1586464771.699,-84.473,-154.297,-49.316,-294.434,0.000
1586464771.703,185.059,255.859,79.590,-83.496,0.000
1586464771.707,8.301,114.258,46.387,228.516,0.000
1586464771.711,-305.176,-144.043,-110.352,80.566,0.000
1586464771.714,-186.523,-284.180,-289.062,-249.023,0.000
1586464771.718,126.953,-76.660,-123.047,-196.777,0.000
1586464771.722,67.383,113.281,41.992,154.297,0.000
1586464771.726,-271.484,-292.969,-238.281,129.395,0.000
1586464771.730,-288.086,-511.230,-363.281,-203.125,0.000
1586464771.734,31.738,136.719,-7.812,-267.090,0.000
1586464771.738,140.625,-182.617,-173.340,104.980,0.000
1586464771.742,-166.992,-451.172,-201.172,220.703,0.000
1586464771.746,-311.523,71.777,34.180,-112.305,0.000
1586464771.750,-14.648,61.523,-12.207,-291.016,0.000
1586464771.753,168.457,335.449,136.719,-19.531,0.000
1586464771.757,-79.590,384.766,117.676,213.867,0.000
1586464771.761,-306.641,-220.215,-200.684,-16.602,0.000
1586464771.765,-93.750,-451.172,-362.305,-299.316,0.000
1586464771.769,194.336,21.973,-104.492,-108.398,0.000
1586464771.773,72.754,59.570,0.977,251.953,0.000
1586464771.777,-236.816,-300.781,-231.445,121.582,0.000
1586464771.781,-176.758,-551.758,-392.578,-240.723,0.000
1586464771.785,127.441,-562.500,-279.297,-209.473,0.000
1586464771.789,94.238,288.574,160.645,126.953,0.000
1586464771.793,-245.117,307.129,24.414,125.000,0.000
1586464771.796,-295.898,-468.750,-322.754,-211.914,0.000
1586464771.800,10.742,-113.770,-58.594,-329.590,0.000
1586464771.804,148.438,596.680,161.133,13.184,0.000
1586464771.808,-127.441,85.449,-148.926,201.172,0.000
1586464771.812,-306.152,-456.543,-354.004,-103.516,0.000
1586464771.816,-45.410,-157.227,-138.672,-319.336,0.000
1586464771.820,198.242,197.266,83.008,-19.531,0.000
1586464771.824,-8.789,152.832,25.391,237.305,0.000
1586464771.828,-276.855,-658.691,-464.355,23.438,0.000
1586464771.832,-115.723,-711.426,-344.238,-280.762,0.000
1586464771.836,156.250,448.730,222.168,-161.621,0.000
1586464771.839,42.969,616.699,133.301,181.641,0.000
1586464771.843,-270.996,-28.809,-196.777,80.566,0.000
1586464771.847,-220.215,-86.426,-171.875,-254.883,0.000
1586464771.851,113.770,399.902,118.652,-253.906,0.000
1586464771.855,150.391,396.484,74.219,119.141,0.000
1586464771.859,-180.176,-32.227,-169.922,177.246,0.000
1586464771.863,-273.926,-163.574,-285.645,-162.109,0.000
1586464771.867,42.969,-258.789,-331.055,-276.367,0.000
1586464771.871,203.125,-111.816,-179.688,62.012,0.000
1586464771.875,-87.891,-70.801,-106.445,236.328,0.000
1586464771.878,-302.734,-368.652,-283.691,-73.730,0.000
1586464771.882,-45.410,-56.641,-81.543,-317.871,0.000
1586464771.886,224.121,9.766,-62.500,-46.387,0.000
1586464771.890,2.441,-445.801,-256.836,229.004,0.000
1586464771.894,-309.570,-266.113,-208.984,-0.488,0.000
1586464771.898,-150.391,-17.090,-120.117,-297.852,0.000
1586464771.902,190.430,32.715,-33.691,-157.715,0.000
1586464771.906,85.449,156.250,37.109,184.570,0.000
1586464771.910,-251.465,29.297,-42.969,94.727,0.000
1586464771.914,-215.332,-419.922,-330.078,-236.328,0.000
1586464771.918,117.188,-687.012,-397.949,-226.562,0.000
1586464771.921,168.457,-222.168,-93.750,128.906,0.000
1586464771.925,-173.340,302.246,100.098,174.316,0.000
1586464771.929,-274.902,-314.453,-297.852,-132.812,0.000
1586464771.933,25.391,-367.676,-227.051,-287.598,0.000
1586464771.937,201.172,215.820,95.703,4.883,0.000
1586464771.941,-61.035,291.504,85.449,202.637,0.000
1586464771.945,-280.762,-361.328,-308.105,-45.898,0.000
1586464771.949,-57.129,-544.434,-383.301,-290.039,0.000
1586464771.953,200.684,142.578,51.758,-91.797,0.000
1586464771.957,11.230,319.336,112.305,210.938,0.000
1586464771.961,-285.645,-450.195,-378.418,64.453,0.000
1586464771.964,-162.598,-748.535,-484.375,-248.535,0.000
1586464771.968,137.207,209.961,62.500,-203.125,0.000
1586464771.972,89.844,649.902,165.527,140.137,0.000
1586464771.976,-231.445,-110.352,-146.973,132.324,0.000
1586464771.980,-238.281,-499.023,-336.914,-194.336,0.000
1586464771.984,101.074,170.410,-54.199,-260.742,0.000
1586464771.988,181.152,509.766,124.512,91.797,0.000
1586464771.992,-160.645,-72.266,-173.828,194.824,0.000
1586464771.996,-302.734,-747.559,-450.195,-115.723,0.000
1586464772.000,-9.277,-430.664,-239.258,-295.410,0.000
1586464772.003,189.453,446.777,160.156,-14.648,0.000
1586464772.007,-47.852,124.023,-54.199,229.492,0.000
1586464772.011,-290.039,-495.605,-343.750,-15.625,0.000
1586464772.015,-101.562,-109.863,-99.609,-297.852,0.000
1586464772.019,185.547,425.781,109.375,-108.398,0.000
1586464772.023,75.684,-209.473,-190.430,237.305,0.000
1586464772.027,-250.488,-792.480,-424.805,94.727,0.000
1586464772.031,-191.895,-219.727,-171.875,-261.230,0.000
1586464772.035,145.020,146.973,36.133,-202.148,0.000
1586464772.039,129.883,181.641,45.410,173.340,0.000
1586464772.043,-211.426,8.789,-14.648,173.340,0.000
1586464772.046,-242.188,-177.734,-200.684,-180.664,0.000
1586464772.050,110.352,-138.672,-193.848,-255.371,0.000
1586464772.054,236.816,-29.297,-22.949,111.816,0.000
1586464772.058,-114.258,-233.887,-128.906,218.262,0.000
1586464772.062,-303.711,-294.434,-236.328,-110.840,0.000
1586464772.066,4.883,-437.012,-373.047,-282.715,0.000
1586464772.070,236.816,-576.172,-322.266,0.000,0.000
1586464772.074,-20.996,83.008,92.285,221.191,0.000
1586464772.078,-290.527,-81.055,-183.105,4.883,0.000
1586464772.082,-99.121,-490.723,-360.352,-283.203,0.000
1586464772.086,162.109,-83.008,-26.855,-130.859,0.000
1586464772.089,31.250,-18.555,-103.516,230.469,0.000
1586464772.093,-245.605,-587.891,-411.133,119.141,0.000
1586464772.097,-198.242,-747.070,-394.043,-232.910,0.000
1586464772.101,108.398,-318.848,-174.316,-235.352,0.000
1586464772.105,119.629,265.625,92.773,129.883,0.000
1586464772.109,-199.707,23.926,-116.699,187.012,0.000
1586464772.113,-272.949,-543.945,-368.164,-155.273,0.000
1586464772.117,24.414,-57.129,-29.297,-297.363,0.000
1586464772.121,155.273,726.562,255.371,32.227,0.000
1586464772.125,-129.883,406.250,14.648,211.426,0.000
1586464772.128,-290.039,-591.797,-353.516,-42.480,0.000
1586464772.132,-24.902,-300.781,-106.445,-272.461,0.000
1586464772.136,192.871,524.902,176.270,-57.129,0.000
1586464772.140,-48.340,226.562,-35.645,213.379,0.000
1586464772.144,-302.246,-389.160,-346.191,-18.066,0.000
1586464772.148,-117.188,-482.422,-356.934,-333.008,0.000
1586464772.152,145.996,-21.484,-78.613,-187.988,0.000
1586464772.156,72.266,-46.875,-106.934,176.758,0.000
1586464772.160,-243.652,-725.098,-424.316,121.582,0.000
1586464772.164,-233.398,-310.547,-141.113,-242.676,0.000
1586464772.168,114.746,145.996,30.762,-263.184,0.000
1586464772.171,169.434,148.926,48.340,110.352,0.000
1586464772.175,-172.363,73.242,35.156,170.898,0.000
1586464772.179,-276.855,-78.613,-122.559,-171.387,0.000
1586464772.183,34.180,-131.348,-228.027,-310.547,0.000
1586464772.187,220.703,80.078,4.395,20.996,0.000
1586464772.191,-54.199,150.879,41.016,223.145,0.000
1586464772.195,-279.297,-386.230,-323.242,-59.570,0.000
1586464772.199,-51.270,-348.145,-278.809,-319.824,0.000
1586464772.203,220.703,-329.102,-275.879,-78.613,0.000
1586464772.207,35.645,-289.062,-156.250,213.379,0.000
1586464772.211,-284.180,52.734,-22.949,18.555,0.000
1586464772.214,-152.344,-148.438,-196.289,-281.738,0.000
1586464772.218,183.105,137.207,-17.578,-202.637,0.000
1586464772.222,119.629,646.484,209.473,139.160,0.000
1586464772.226,-233.887,181.152,-69.336,109.863,0.000
1586464772.230,-237.305,-557.129,-416.992,-208.984,0.000
1586464772.234,86.426,-182.617,-137.207,-250.977,0.000
1586464772.238,156.250,482.422,154.297,88.379,0.000
1586464772.242,-139.648,55.176,-82.031,199.219,0.000
1586464772.246,-261.230,-690.430,-463.867,-100.098,0.000
1586464772.250,16.602,-744.141,-433.594,-271.973,0.000
1586464772.253,192.383,265.625,118.164,-16.602,0.000
1586464772.257,-78.125,588.379,172.852,197.266,0.000
1586464772.261,-308.594,-257.812,-228.027,-31.250,0.000
1586464772.265,-101.562,-337.402,-199.219,-296.387,0.000
1586464772.269,163.574,444.336,171.875,-113.770,0.000
1586464772.273,20.508,604.004,152.344,209.961,0.000
1586464772.277,-274.902,-266.113,-265.625,72.266,0.000
1586464772.281,-174.805,-571.289,-363.770,-270.996,0.000
1586464772.285,141.113,152.832,54.199,-220.703,0.000
1586464772.289,105.469,278.809,87.891,151.367,0.000
1586464772.293,-225.098,-424.805,-276.855,155.762,0.000
1586464772.296,-266.602,-538.574,-338.379,-191.406,0.000
1586464772.300,60.547,88.379,-73.730,-281.250,0.000
1586464772.304,177.246,395.508,51.270,65.918,0.000
1586464772.308,-122.070,-380.371,-312.012,220.703,0.000
1586464772.312,-298.828,-745.605,-419.922,-100.586,0.000
1586464772.316,-48.828,30.273,-85.449,-321.289,0.000
1586464772.320,176.758,311.523,44.434,-32.227,0.000
1586464772.324,-60.547,-0.977,-110.352,214.355,0.000
1586464772.328,-339.355,-113.770,-184.082,-39.062,0.000
1586464772.332,-160.645,47.852,-199.707,-333.008,0.000
1586464772.336,167.480,20.508,-273.926,-136.719,0.000
1586464772.339,52.734,-216.797,-289.062,205.078,0.000
1586464772.343,-308.105,-240.723,-309.570,49.805,0.000
1586464772.347,-256.836,-146.484,-358.887,-297.852,0.000
1586464772.351,85.449,165.039,-171.875,-270.020,0.000
1586464772.355,92.773,567.871,60.059,91.797,0.000
1586464772.359,-273.438,597.656,44.434,99.609,0.000
1586464772.363,-369.629,331.055,-181.641,-257.324,0.000
1586464772.367,-64.453,416.992,-166.504,-374.023,0.000
1586464772.371,72.266,562.500,-33.691,-64.453,0.000
1586464772.375,-248.047,543.945,31.738,59.570,0.000
1586464772.378,-459.961,359.863,-161.621,-255.859,0.000
1586464772.382,-219.238,172.852,-377.930,-489.258,0.000
1586464772.386,-11.719,580.566,-67.871,-263.672,0.000
1586464772.390,-240.723,896.973,126.953,-8.301,0.000
1586464772.394,-526.367,599.121,-135.742,-199.219,0.000
1586464772.398,-339.355,-193.359,-452.148,-474.121,0.000
1586464772.402,-22.949,-126.953,-322.754,-359.375,0.000
1586464772.406,-156.250,910.645,130.859,-48.828,0.000
1586464772.410,-483.398,553.223,-136.230,-114.258,0.000
1586464772.414,-421.875,-18.555,-384.277,-423.340,0.000
1586464772.418,-72.754,442.383,-51.758,-422.363,0.000
1586464772.421,-22.461,896.973,161.133,-67.383,0.000
1586464772.425,-354.004,425.781,-117.188,1.953,0.000
1586464772.429,-424.316,-442.871,-489.746,-287.598,0.000
1586464772.433,-95.215,-192.871,-163.086,-423.340,0.000
1586464772.437,69.336,603.027,240.234,-107.910,0.000
1586464772.441,-169.922,59.570,-166.016,128.906,0.000
1586464772.445,-341.797,-844.727,-542.969,-105.469,0.000
1586464772.449,-122.559,-262.695,-85.449,-368.652,0.000
1586464772.453,179.199,299.316,173.828,-100.098,0.000
1586464772.457,37.598,-48.828,-35.156,237.793,0.000
1586464772.461,-262.207,-652.832,-322.754,53.711,0.000
1586464772.464,-124.023,-735.352,-328.125,-253.906,0.000
1586464772.468,208.008,-363.770,-72.754,-146.484,0.000
1586464772.472,150.879,-148.438,86.426,221.191,0.000
1586464772.476,-163.086,-658.203,-237.793,187.500,0.000
1586464772.480,-163.574,-958.496,-374.023,-156.738,0.000
1586464772.484,148.926,-272.461,-21.484,-217.285,0.000
1586464772.488,249.512,-418.457,-153.320,166.992,0.000
1586464772.492,-83.008,-786.133,-246.094,268.555,0.000
1586464772.496,-239.258,-448.242,-123.535,-72.266,0.000
1586464772.500,74.707,-445.801,-245.605,-226.562,0.000
1586464772.503,277.832,-163.574,-16.113,75.684,0.000
1586464772.507,24.902,12.207,72.266,310.547,0.000
1586464772.511,-220.215,-231.934,-122.070,64.941,0.000
1586464772.515,-15.625,-459.961,-248.535,-209.473,0.000
1586464772.519,277.344,-383.789,-125.000,6.348,0.000
1586464772.523,125.977,-192.383,32.227,319.824,0.000
1586464772.527,-180.664,-541.992,-222.168,156.250,0.000
1586464772.531,-84.961,-906.250,-436.035,-164.551,0.000
1586464772.535,233.887,-744.629,-341.797,-109.375,0.000
1586464772.539,182.617,77.637,105.957,220.215,0.000
1586464772.543,-157.227,138.184,52.734,215.332,0.000
1586464772.546,-165.527,-533.203,-301.758,-113.281,0.000
1586464772.550,161.621,-359.863,-152.344,-219.238,0.000
1586464772.554,255.859,354.004,204.590,119.141,0.000
1586464772.558,-47.363,48.340,-49.316,270.020,0.000
1586464772.562,-212.891,-621.582,-383.789,-41.992,0.000
1586464772.566,63.477,-315.918,-128.906,-236.816,0.000
1586464772.570,285.156,192.383,135.742,54.688,0.000
1586464772.574,52.246,23.438,-41.504,285.156,0.000
1586464772.578,-202.148,-716.797,-488.281,67.383,0.000
1586464772.582,-23.926,-686.035,-333.008,-236.328,0.000
1586464772.586,253.418,326.172,184.570,-104.980,0.000
1586464772.589,138.184,512.695,120.117,248.535,0.000
1586464772.593,-177.734,-228.516,-258.301,143.555,0.000
1586464772.597,-130.859,-375.000,-296.387,-199.707,0.000
1586464772.601,200.195,203.125,35.156,-181.152,0.000
1586464772.605,219.727,314.453,82.520,189.453,0.000
1586464772.609,-114.258,-170.898,-210.449,229.004,0.000
1586464772.613,-200.684,-256.348,-276.855,-115.234,0.000
1586464772.617,107.422,-112.793,-192.383,-238.281,0.000
1586464772.621,246.582,-56.152,-52.734,108.887,0.000
1586464772.625,-47.363,-27.344,4.395,274.902,0.000
1586464772.628,-228.516,-222.168,-228.027,-34.668,0.000
1586464772.632,23.438,-103.516,-219.727,-275.879,0.000
1586464772.636,263.672,-145.508,-186.523,-4.395,0.000
1586464772.640,61.523,-636.719,-366.211,285.156,0.000
1586464772.644,-238.770,-333.008,-234.863,48.340,0.000
1586464772.648,-79.102,-92.285,-216.309,-257.324,0.000
1586464772.652,237.305,-117.188,-217.285,-115.723,0.000
1586464772.656,134.277,96.191,2.930,219.727,0.000
1586464772.660,-211.426,47.852,-33.691,117.676,0.000
1586464772.664,-149.414,-404.297,-332.520,-192.871,0.000
1586464772.668,209.473,-720.215,-423.828,-177.246,0.000
1586464772.671,215.332,-320.801,-148.926,162.598,0.000
1586464772.675,-125.488,239.258,74.219,192.871,0.000
1586464772.679,-209.473,-174.316,-290.039,-136.719,0.000
1586464772.683,89.844,-234.863,-212.402,-267.090,0.000
1586464772.687,249.023,451.172,194.336,45.898,0.000
1586464772.691,-33.203,419.922,38.086,242.676,0.000
1586464772.695,-253.906,-462.402,-387.695,-21.484,0.000
1586464772.699,-27.344,-440.430,-240.723,-268.066,0.000
1586464772.703,235.352,394.531,159.668,-51.270,0.000
1586464772.707,58.594,576.660,162.598,239.258,0.000
1586464772.711,-225.586,-395.996,-354.492,84.961,0.000
1586464772.714,-100.098,-806.152,-505.859,-227.539,0.000
1586464772.718,200.195,130.859,36.133,-166.992,0.000
1586464772.722,131.836,566.895,157.715,193.848,0.000
1586464772.726,-211.426,-216.797,-217.773,165.039,0.000
1586464772.730,-216.797,-659.668,-427.246,-186.523,0.000
1586464772.734,113.770,-130.371,-181.641,-251.465,0.000
1586464772.738,189.453,270.508,59.082,96.680,0.000
1586464772.742,-138.672,-100.586,-144.043,200.195,0.000
1586464772.746,-263.184,-579.590,-386.719,-112.793,0.000
1586464772.750,24.902,-178.223,-188.965,-297.363,0.000
1586464772.753,210.938,245.117,58.594,1.953,0.000
1586464772.757,-42.480,-206.543,-109.375,249.512,0.000
1586464772.761,-284.180,-553.711,-324.707,-4.883,0.000
1586464772.765,-76.172,4.883,-71.777,-299.805,0.000
1586464772.769,213.867,530.762,151.367,-95.703,0.000
1586464772.773,55.664,286.133,-20.020,246.582,0.000
1586464772.777,-256.836,-4.395,-73.242,95.703,0.000
1586464772.781,-138.184,-2.930,-173.340,-240.234,0.000
1586464772.785,170.898,76.172,-166.992,-187.012,0.000
1586464772.789,132.324,238.770,88.379,185.547,0.000
1586464772.793,-196.777,66.406,-69.824,173.828,0.000
1586464772.796,-231.934,3.418,-150.391,-177.246,0.000
1586464772.800,100.098,148.926,-5.859,-243.652,0.000
1586464772.804,206.543,43.457,-46.387,113.281,0.000
1586464772.808,-124.512,-126.465,-165.039,230.469,0.000
1586464772.812,-274.902,-389.160,-326.660,-95.703,0.000
1586464772.816,30.273,-509.277,-374.023,-274.902,0.000
1586464772.820,226.562,-404.297,-245.117,22.461,0.000
1586464772.824,-41.992,153.809,89.355,238.281,0.000
1586464772.828,-274.902,74.219,-113.770,2.441,0.000
1586464772.832,-55.176,-280.273,-270.996,-279.785,0.000
1586464772.836,220.703,204.102,66.406,-125.488,0.000
1586464772.839,84.473,300.293,59.082,227.051,0.000
1586464772.843,-226.074,-202.148,-248.535,109.863,0.000
1586464772.847,-154.297,-306.152,-299.805,-241.211,0.000
1586464772.851,178.711,-128.906,-137.207,-199.707,0.000
1586464772.855,177.246,250.488,111.816,160.645,0.000
1586464772.859,-164.062,249.023,31.738,181.641,0.000
1586464772.863,-207.031,-660.156,-484.863,-127.930,0.000
1586464772.867,112.305,-601.074,-290.039,-245.117,0.000
1586464772.871,210.449,400.391,205.078,58.105,0.000
1586464772.875,-81.543,179.688,-16.113,226.074,0.000
1586464772.878,-254.883,-357.422,-292.969,-52.734,0.000
1586464772.882,-9.766,-54.199,-117.676,-291.992,0.000
1586464772.886,230.469,530.762,192.383,-35.645,0.000
1586464772.890,17.090,300.781,43.945,260.254,0.000
1586464772.894,-270.508,-256.348,-289.551,29.785,0.000
1586464772.898,-105.469,-321.777,-331.543,-291.016,0.000
1586464772.902,186.035,280.762,71.777,-154.297,0.000
1586464772.906,103.516,285.645,18.066,223.145,0.000
1586464772.910,-206.055,-654.297,-427.734,143.066,0.000
1586464772.914,-180.664,-363.281,-262.207,-238.770,0.000
1586464772.918,149.414,274.902,-16.602,-238.281,0.000
1586464772.921,166.016,355.469,95.703,130.371,0.000
1586464772.925,-157.227,61.035,-41.992,187.988,0.000
1586464772.929,-235.840,-266.113,-236.328,-143.066,0.000
1586464772.933,66.406,-116.211,-79.102,-278.809,0.000
1586464772.937,236.816,279.297,152.832,62.988,0.000
1586464772.941,-30.273,210.938,41.504,200.684,0.000
1586464772.945,-234.375,-377.441,-281.738,-88.379,0.000
1586464772.949,-1.953,-243.652,-252.441,-273.438,0.000
1586464772.953,283.691,-355.957,-318.848,-42.480,0.000
1586464772.957,85.938,-377.441,-166.016,237.305,0.000
1586464772.961,-229.980,76.172,27.344,26.367,0.000
1586464772.964,-79.590,-143.066,-240.234,-274.414,0.000
1586464772.968,241.211,14.648,-104.004,-153.320,0.000
1586464772.972,176.270,327.637,95.703,199.707,0.000
1586464772.976,-151.367,164.551,-20.996,126.953,0.000
1586464772.980,-145.508,-97.656,-212.891,-219.727,0.000
1586464772.984,179.199,26.367,-162.598,-260.254,0.000
1586464772.988,242.676,351.074,92.285,96.680,0.000
1586464772.992,-97.168,172.852,-62.500,190.430,0.000
1586464772.996,-208.984,-374.512,-435.059,-137.695,0.000
1586464773.000,106.445,-506.836,-383.789,-297.852,0.000
1586464773.003,260.742,410.156,114.258,6.348,0.000
1586464773.007,-2.930,657.715,131.836,228.027,0.000
1586464773.011,-206.055,-126.465,-221.680,-16.113,0.000
1586464773.015,-4.883,-92.285,-128.906,-282.715,0.000
1586464773.019,250.000,657.227,151.855,-92.773,0.000
1586464773.023,99.609,759.766,136.719,219.238,0.000
1586464773.027,-182.617,-59.082,-203.125,75.684,0.000
1586464773.031,-62.500,-369.141,-335.938,-250.488,0.000
1586464773.035,241.699,346.680,25.879,-194.824,0.000
1586464773.039,179.688,376.953,60.547,163.086,0.000
1586464773.043,-159.668,-168.945,-238.281,130.371,0.000
1586464773.046,-166.992,-248.047,-294.434,-198.242,0.000
1586464773.050,131.836,400.391,61.523,-270.020,0.000
1586464773.054,217.285,741.699,135.742,81.055,0.000
1586464773.058,-62.988,-260.254,-268.555,244.629,0.000
1586464773.062,-221.191,-618.164,-389.160,-99.121,0.000
1586464773.066,41.016,230.469,-40.039,-328.613,0.000
1586464773.070,263.184,477.051,103.516,-5.371,0.000
1586464773.074,33.691,238.770,36.621,250.000,0.000
1586464773.078,-219.238,5.859,-93.750,10.254,0.000
1586464773.082,-20.020,38.086,-117.188,-280.273,0.000
1586464773.086,286.133,91.309,-9.766,-108.398,0.000
1586464773.089,176.758,-326.660,-182.617,257.324,0.000
1586464773.093,-164.551,-322.266,-236.328,126.465,0.000
1586464773.097,-105.957,6.348,-95.703,-238.770,0.000
1586464773.101,247.070,165.039,21.973,-218.262,0.000
1586464773.105,263.672,202.637,7.324,170.898,0.000
1586464773.109,-76.172,96.680,-1.465,192.871,0.000
1586464773.113,-135.254,-108.887,-149.902,-178.223,0.000
1586464773.117,185.547,-48.340,-182.617,-282.227,0.000
1586464773.121,308.594,178.711,-20.996,78.125,0.000
1586464773.125,0.977,117.676,50.293,214.355,0.000
1586464773.128,-170.410,-122.070,-145.996,-92.285,0.000
1586464773.132,98.633,-437.988,-350.098,-299.805,0.000
1586464773.136,302.246,-93.262,-48.828,-30.273,0.000
1586464773.140,50.293,340.820,142.090,241.211,0.000
1586464773.144,-211.426,-134.766,-175.781,25.391,0.000
1586464773.148,-7.812,-728.027,-401.367,-271.973,0.000
1586464773.152,238.281,-140.137,20.020,-152.832,0.000
1586464773.156,113.281,438.965,168.945,186.523,0.000
1586464773.160,-188.477,-166.504,-201.660,109.375,0.000
1586464773.164,-150.879,-518.066,-325.684,-263.184,0.000
1586464773.168,166.992,24.902,-1.465,-291.504,0.000
1586464773.171,175.781,468.750,194.824,103.516,0.000
1586464773.175,-129.883,-153.320,-182.129,187.500,0.000
1586464773.179,-213.867,-912.598,-534.668,-159.180,0.000
1586464773.183,62.012,-445.801,-237.793,-332.031,0.000
1586464773.187,216.309,395.508,174.805,-3.418,0.000
1586464773.191,-36.621,-98.633,-184.082,220.703,0.000
1586464773.195,-238.770,-941.895,-626.953,-47.852,0.000
1586464773.199,-32.715,-308.105,-161.133,-346.680,0.000
1586464773.203,203.125,437.012,136.719,-110.352,0.000
1586464773.207,4.883,186.523,-37.109,218.262,0.000
1586464773.211,-295.898,-186.035,-242.676,19.043,0.000
1586464773.214,-141.602,-263.184,-296.387,-301.758,0.000
1586464773.218,187.012,-141.113,-173.828,-174.316,0.000
1586464773.222,105.957,76.660,-28.809,193.359,0.000
1586464773.226,-220.215,-335.449,-266.602,133.789,0.000
1586464773.230,-214.355,-484.375,-334.961,-232.910,0.000
1586464773.234,104.492,190.918,22.949,-288.574,0.000
1586464773.238,183.105,-239.746,-178.711,128.906,0.000
1586464773.242,-126.465,-755.371,-364.258,244.629,0.000
1586464773.246,-234.375,-139.160,-114.746,-134.277,0.000
1586464773.250,64.941,10.742,-79.590,-322.754,0.000
1586464773.253,246.582,168.945,48.828,20.508,0.000
1586464773.257,-24.902,325.195,112.305,274.414,0.000
1586464773.261,-269.043,-2.441,-87.891,4.395,0.000
1586464773.265,-43.945,-293.457,-322.266,-278.320,0.000
1586464773.269,238.281,1.465,-122.559,-69.824,0.000
1586464773.273,79.590,103.516,42.969,270.996,0.000
1586464773.277,-213.867,-388.184,-271.484,116.211,0.000
1586464773.281,-87.891,-802.246,-495.605,-231.934,0.000
1586464773.285,221.191,-648.438,-333.496,-169.922,0.000
1586464773.289,156.250,141.113,80.078,179.688,0.000
1586464773.293,-158.691,168.945,-13.184,161.621,0.000
1586464773.296,-151.367,-432.617,-334.473,-188.965,0.000
1586464773.300,143.066,-210.449,-144.531,-291.016,0.000
1586464773.304,189.941,542.969,203.613,78.125,0.000
1586464773.308,-105.957,66.895,-110.352,253.906,0.000
1586464773.312,-248.047,-708.496,-459.473,-76.660,0.000
1586464773.316,12.695,-330.078,-213.379,-312.012,0.000
1586464773.320,206.055,89.355,36.621,-3.906,0.000
1586464773.324,-54.688,-33.691,-79.590,263.672,0.000
1586464773.328,-291.992,-706.055,-517.090,33.691,0.000
1586464773.332,-88.379,-643.066,-345.215,-285.645,0.000
1586464773.336,177.246,81.055,11.230,-125.488,0.000
1586464773.339,27.832,25.879,-45.898,243.164,0.000
1586464773.343,-295.898,-219.238,-163.086,111.328,0.000
1586464773.347,-226.562,-63.965,-78.125,-260.742,0.000
1586464773.351,119.629,453.125,157.227,-254.883,0.000
1586464773.355,123.047,435.059,57.617,146.973,0.000
1586464773.359,-240.723,-145.508,-238.770,187.988,0.000
1586464773.363,-311.523,-310.059,-322.754,-170.410,0.000
1586464773.367,2.441,-192.871,-244.141,-295.898,0.000
1586464773.371,117.188,-165.527,-166.504,71.777,0.000
1586464773.375,-187.012,-551.758,-297.852,261.230,0.000
1586464773.378,-352.051,-433.105,-285.156,-73.730,0.000
1586464773.382,-89.355,141.602,20.996,-330.566,0.000
1586464773.386,128.418,88.867,-28.809,-35.645,0.000
1586464773.390,-90.820,-265.625,-171.387,281.250,0.000
1586464773.394,-365.234,-320.801,-140.625,46.875,0.000
1586464773.398,-194.336,-338.379,-187.500,-299.805,0.000
1586464773.402,109.863,-90.820,-50.293,-158.203,0.000
1586464773.406,3.418,24.414,36.621,230.469,0.000
1586464773.410,-315.430,-89.844,-27.344,131.836,0.000
1586464773.414,-245.117,-333.008,-235.840,-244.629,0.000
1586464773.418,108.398,-675.293,-380.859,-234.863,0.000
1586464773.421,124.512,-309.570,-158.203,150.879,0.000
1586464773.425,-225.586,395.020,179.688,184.082,0.000
1586464773.429,-299.316,-143.066,-116.699,-166.016,0.000
1586464773.433,22.461,-225.586,-98.145,-338.867,0.000
1586464773.437,185.059,437.988,187.500,11.719,0.000
1586464773.441,-103.027,484.375,158.203,243.164,0.000
1586464773.445,-284.180,-147.461,-149.902,-53.711,0.000
1586464773.449,-20.996,-312.012,-188.477,-318.848,0.000
1586464773.453,217.285,132.324,109.375,-70.801,0.000
1586464773.457,21.973,284.668,154.785,272.461,0.000
1586464773.461,-255.859,-350.586,-249.023,94.727,0.000
1586464773.464,-127.441,-725.586,-412.598,-291.992,0.000
1586464773.468,166.016,119.629,57.617,-229.980,0.000
1586464773.472,95.215,659.668,244.629,187.988,0.000
1586464773.476,-224.121,-64.941,-179.199,175.781,0.000
1586464773.480,-215.332,-843.262,-511.719,-199.219,0.000
1586464773.484,78.613,20.020,37.109,-308.105,0.000
1586464773.488,151.367,642.090,216.797,86.914,0.000
1586464773.492,-138.672,122.070,-61.523,233.887,0.000
1586464773.496,-259.277,-527.832,-361.816,-122.070,0.000
1586464773.500,10.742,-238.281,-175.781,-334.473,0.000
1586464773.503,187.012,445.312,171.387,17.578,0.000
1586464773.507,-59.570,10.254,-102.539,261.719,0.000
1586464773.511,-301.270,-701.172,-440.430,-32.715,0.000
1586464773.515,-103.516,-457.031,-315.430,-325.684,0.000
1586464773.519,188.965,191.406,-60.059,-118.164,0.000
1586464773.523,46.387,-175.781,-141.602,260.742,0.000
1586464773.527,-272.461,-510.742,-292.969,85.938,0.000
1586464773.531,-161.133,-172.852,-318.359,-303.223,0.000
1586464773.535,150.391,97.656,-122.559,-252.441,0.000
1586464773.539,105.469,171.387,57.617,155.273,0.000
1586464773.543,-218.262,115.234,10.742,153.320,0.000
1586464773.546,-237.305,134.766,-43.457,-230.957,0.000
1586464773.550,85.938,112.793,-88.867,-314.453,0.000
1586464773.554,180.176,78.613,-63.965,73.730,0.000
1586464773.558,-134.277,-93.262,-129.395,204.590,0.000
1586464773.562,-289.062,-100.098,-208.496,-152.832,0.000
1586464773.566,-2.441,-320.801,-351.074,-353.516,0.000
1586464773.570,203.613,-711.426,-423.340,-3.418,0.000
1586464773.574,-58.594,-44.922,22.461,256.836,0.000
1586464773.578,-307.129,169.434,38.086,5.859,0.000
1586464773.582,-102.051,-242.188,-203.125,-323.242,0.000
1586464773.586,195.312,14.160,-15.625,-160.645,0.000
1586464773.589,53.223,312.012,134.277,218.750,0.000
1586464773.593,-268.555,-113.281,-146.484,95.703,0.000
1586464773.597,-179.199,-511.719,-365.723,-288.574,0.000
1586464773.601,145.020,-285.156,-213.379,-269.043,0.000
1586464773.605,147.461,196.777,74.219,150.391,0.000
1586464773.609,-162.109,208.008,46.387,184.570,0.000
1586464773.613,-191.406,-699.219,-465.820,-190.430,0.000
1586464773.617,96.191,-609.863,-299.805,-350.098,0.000
1586464773.621,207.031,577.148,256.348,4.883,0.000
1586464773.625,-50.293,363.281,43.945,230.957,0.000
1586464773.628,-218.262,-487.305,-318.359,-84.961,0.000
1586464773.632,30.273,-179.688,-109.375,-354.980,0.000
1586464773.636,268.555,520.996,183.594,-64.941,0.000
1586464773.640,48.340,390.137,70.801,261.719,0.000
1586464773.644,-212.891,-245.605,-281.250,35.156,0.000
1586464773.648,-41.504,-419.922,-341.797,-326.660,0.000
1586464773.652,231.445,77.148,19.043,-188.965,0.000
1586464773.656,125.977,127.441,-31.250,219.238,0.000
1586464773.660,-190.430,-527.344,-376.953,136.230,0.000
1586464773.664,-167.969,-303.223,-294.922,-278.809,0.000
1586464773.668,123.535,434.082,18.555,-328.613,0.000
1586464773.671,160.645,366.699,-29.785,128.906,0.000
1586464773.675,-139.648,-26.367,-276.855,248.535,0.000
1586464773.679,-240.723,74.707,-221.191,-162.598,0.000
1586464773.683,53.711,-107.422,-345.703,-330.566,0.000
1586464773.687,217.285,-61.035,-243.164,54.688,0.000
1586464773.691,-58.594,193.848,-41.992,295.410,0.000
1586464773.695,-246.094,-221.191,-280.273,0.488,0.000
1586464773.699,-9.766,-310.547,-337.891,-311.523,0.000
1586464773.703,231.445,-439.941,-359.375,-63.477,0.000
1586464773.707,26.855,-491.699,-269.531,285.645,0.000
1586464773.711,-266.113,78.613,0.488,61.523,0.000
1586464773.714,-125.000,6.836,-108.398,-333.496,0.000
1586464773.718,173.340,158.203,-4.883,-237.793,0.000
1586464773.722,94.238,538.086,164.551,195.801,0.000
1586464773.726,-254.883,274.902,0.488,148.926,0.000
1586464773.730,-254.883,-222.656,-270.020,-261.719,0.000
1586464773.734,42.969,-91.309,-165.527,-339.844,0.000
1586464773.738,87.891,523.926,166.504,86.426,0.000
1586464773.742,-224.121,118.164,-81.543,241.699,0.000
1586464773.746,-334.473,-741.211,-521.973,-119.629,0.000
1586464773.750,-34.668,-789.551,-481.445,-332.520,0.000
1586464773.753,107.910,117.676,51.270,0.000,0.000
1586464773.757,-146.973,417.969,116.699,267.578,0.000
1586464773.761,-341.309,-364.258,-251.465,-20.020,0.000
1586464773.765,-152.344,-434.082,-271.484,-364.258,0.000
1586464773.769,102.051,310.059,72.754,-139.648,0.000
1586464773.773,-33.203,459.473,122.559,254.395,0.000
1586464773.777,-301.270,-251.953,-216.309,110.352,0.000
1586464773.781,-185.059,-464.355,-298.828,-275.391,0.000
1586464773.785,143.066,165.039,14.648,-248.047,0.000
1586464773.789,113.281,178.711,51.758,197.266,0.000
1586464773.793,-212.891,-452.148,-247.070,228.027,0.000
1586464773.796,-212.891,-477.051,-298.340,-201.660,0.000
1586464773.800,104.004,84.473,-27.832,-312.988,0.000
1586464773.804,185.059,354.004,107.422,128.418,0.000
1586464773.808,-102.051,-337.402,-210.449,306.641,0.000
1586464773.812,-257.812,-738.770,-421.875,-93.262,0.000
1586464773.816,-18.555,-44.922,-132.324,-385.742,0.000
1586464773.820,181.152,286.621,52.246,-11.719,0.000
1586464773.824,-43.945,-14.160,-84.473,329.590,0.000
1586464773.828,-292.969,-178.711,-158.691,33.203,0.000
1586464773.832,-122.559,41.992,-12.695,-352.539,0.000
1586464773.836,156.250,27.832,-9.277,-140.625,0.000
1586464773.839,31.250,-330.078,-182.129,291.016,0.000
1586464773.843,-272.949,-171.875,-38.574,138.184,0.000
1586464773.847,-203.613,88.867,51.270,-288.086,0.000
1586464773.851,97.168,-19.043,-31.738,-261.230,0.000
1586464773.855,80.566,234.863,102.051,175.781,0.000
1586464773.859,-232.422,190.430,19.531,243.164,0.000
1586464773.863,-268.555,-402.344,-300.781,-137.695,0.000
1586464773.867,20.996,-361.816,-219.727,-344.238,0.000
1586464773.871,135.254,53.223,37.598,53.223,0.000
1586464773.875,-137.695,148.438,130.859,306.152,0.000
1586464773.878,-304.688,-156.250,-118.164,-54.199,0.000
1586464773.882,-57.617,-579.102,-384.277,-375.977,0.000
1586464773.886,137.695,-183.594,-53.223,-97.168,0.000
1586464773.890,-73.730,419.434,221.191,265.137,0.000
1586464773.894,-330.078,9.277,-102.051,62.988,0.000
1586464773.898,-194.336,-630.859,-338.379,-337.402,0.000
1586464773.902,98.633,-96.191,21.973,-217.773,0.000
1586464773.906,6.836,645.508,233.398,205.566,0.000
1586464773.910,-278.809,61.035,-120.605,155.273,0.000
1586464773.914,-229.492,-454.590,-332.520,-258.301,0.000
1586464773.918,31.250,61.523,-22.949,-333.008,0.000
1586464773.921,25.391,389.648,186.035,107.422,0.000
1586464773.925,-275.391,12.695,-52.734,224.121,0.000
1586464773.929,-340.332,-450.684,-369.629,-186.035,0.000
1586464773.933,-55.176,-160.645,-139.160,-399.902,0.000
1586464773.937,73.730,588.379,221.191,3.906,0.000
1586464773.941,-189.453,270.996,-55.664,291.016,0.000
1586464773.945,-362.793,-589.355,-445.312,-18.066,0.000
1586464773.949,-143.066,-39.551,-108.398,-371.582,0.000
1586464773.953,83.984,721.191,193.359,-122.559,0.000
1586464773.957,-76.172,469.727,-2.930,280.273,0.000
1586464773.961,-332.031,29.297,-288.574,81.543,0.000
1586464773.964,-192.871,-24.902,-315.430,-333.496,0.000
1586464773.968,123.047,95.215,-291.992,-211.914,0.000
1586464773.972,62.012,283.203,-269.531,252.930,0.000
1586464773.976,-306.152,-0.488,-358.887,180.176,0.000
1586464773.980,-317.383,-244.141,-400.879,-277.832,0.000
1586464773.984,3.906,180.664,-269.043,-353.027,0.000
1586464773.988,60.059,114.746,-285.156,129.395,0.000
1586464773.992,-230.957,-197.266,-386.230,287.109,0.000
1586464773.996,-355.469,55.664,-339.355,-141.602,0.000
1586464774.000,-104.492,99.121,-346.191,-381.836,0.000
1586464774.003,68.359,396.484,-97.168,-18.555,0.000
1586464774.007,-181.152,543.945,57.129,278.809,0.000
1586464774.011,-414.551,300.781,-173.828,-29.297,0.000
1586464774.015,-191.895,127.441,-330.078,-386.230,0.000
1586464774.019,105.957,326.660,-154.785,-155.273,0.000
1586464774.023,-33.691,480.469,30.273,250.977,0.000
1586464774.027,-336.426,283.691,-116.699,89.844,0.000
1586464774.031,-233.398,-45.898,-364.258,-318.359,0.000
1586464774.035,84.473,-531.738,-497.070,-256.836,0.000
1586464774.039,34.668,-42.969,-106.934,191.895,0.000
1586464774.043,-288.574,344.727,28.809,204.102,0.000
1586464774.046,-297.363,-108.398,-232.422,-229.492,0.000
1586464774.050,0.000,20.020,-129.883,-370.117,0.000
1586464774.054,57.617,675.293,180.176,49.805,0.000
1586464774.058,-214.355,368.652,-22.949,260.254,0.000
1586464774.062,-316.895,-378.418,-318.848,-103.516,0.000
1586464774.066,-45.898,-185.059,-199.219,-393.555,0.000
1586464774.070,181.152,267.090,-12.207,-46.875,0.000
1586464774.074,-40.527,166.504,-62.012,294.434,0.000
1586464774.078,-277.344,-406.250,-326.172,19.043,0.000
1586464774.082,-104.004,-302.734,-250.488,-386.719,0.000
1586464774.086,166.504,546.387,66.406,-212.402,0.000
1586464774.089,68.848,694.336,102.051,241.211,0.000
1586464774.093,-208.008,-10.254,-195.312,134.766,0.000
1586464774.097,-125.488,-200.195,-304.688,-301.758,0.000
1586464774.101,173.340,487.305,3.418,-319.824,0.000
1586464774.105,167.480,693.848,93.262,139.648,0.000
1586464774.109,-122.559,377.441,-25.879,215.332,0.000
1586464774.113,-154.297,126.465,-152.832,-205.078,0.000
1586464774.117,148.438,121.582,-273.438,-376.953,0.000
1586464774.121,289.062,298.828,-115.234,44.434,0.000
1586464774.125,26.855,-145.508,-229.980,299.316,0.000
1586464774.128,-151.855,-156.738,-297.852,-81.055,0.000
1586464774.132,88.379,302.734,-198.730,-395.508,0.000
1586464774.136,306.641,443.359,-34.180,-83.984,0.000
1586464774.140,71.289,549.316,87.891,255.371,0.000
1586464774.144,-212.402,466.797,14.648,21.484,0.000
1586464774.148,-48.340,347.168,-27.344,-359.375,0.000
1586464774.152,242.676,264.160,-26.367,-198.730,0.000
1586464774.156,105.469,267.578,-10.254,240.723,0.000
1586464774.160,-213.867,305.664,-33.691,142.090,0.000
1586464774.164,-165.039,88.867,-206.055,-300.781,0.000
1586464774.168,137.695,-380.859,-390.137,-316.406,0.000
1586464774.171,137.695,-85.449,-143.555,140.137,0.000
1586464774.175,-191.406,612.793,146.484,213.867,0.000
1586464774.179,-248.047,174.316,-145.508,-193.848,0.000
1586464774.183,38.086,28.809,-135.742,-395.020,0.000
1586464774.187,160.156,566.895,127.441,18.066,0.000
1586464774.191,-129.883,622.070,121.582,284.668,0.000
1586464774.195,-320.801,69.336,-177.734,-58.594,0.000
1586464774.199,-89.844,-185.059,-300.293,-384.277,0.000
1586464774.203,139.648,375.000,95.703,-106.934,0.000
1586464774.207,-40.039,587.891,137.695,267.578,0.000
1586464774.211,-291.504,-281.250,-362.305,86.426,0.000
1586464774.214,-172.852,-862.305,-483.887,-304.688,0.000
1586464774.218,86.914,-90.332,24.902,-229.004,0.000
1586464774.222,33.203,671.387,250.000,226.074,0.000
1586464774.226,-251.953,75.684,-134.277,203.125,0.000
1586464774.230,-254.883,-362.793,-317.871,-247.559,0.000
1586464774.234,20.996,320.801,78.125,-376.465,0.000
1586464774.238,83.984,722.656,204.590,78.613,0.000
1586464774.242,-192.871,240.723,-20.020,260.742,0.000
1586464774.246,-296.387,-326.660,-271.484,-140.137,0.000
1586464774.250,-39.062,-152.344,-224.121,-420.410,0.000
1586464774.253,116.211,467.285,91.309,-43.945,0.000
1586464774.257,-126.465,227.539,-9.766,300.781,0.000
1586464774.261,-326.660,-292.969,-287.598,-12.207,0.000
1586464774.265,-132.324,-12.695,-168.945,-399.414,0.000
1586464774.269,108.398,288.086,33.203,-134.766,0.000
1586464774.273,-52.734,-28.809,-62.012,310.547,0.000
1586464774.277,-343.262,-132.324,-63.965,122.559,0.000
1586464774.281,-250.977,229.004,80.566,-329.102,0.000
1586464774.285,41.016,284.668,35.156,-271.973,0.000
1586464774.289,-2.930,160.645,49.805,206.055,0.000
1586464774.293,-344.727,138.672,50.293,204.102,0.000
1586464774.296,-366.211,144.043,15.625,-234.863,0.000
1586464774.300,-41.016,82.520,-25.391,-355.957,0.000
1586464774.304,35.156,-382.324,-239.746,84.473,0.000
1586464774.308,-288.574,-365.723,-168.457,276.367,0.000
1586464774.312,-423.340,28.320,-1.953,-116.211,0.000
1586464774.316,-166.016,-218.750,-185.547,-396.973,0.000
1586464774.320,8.789,-126.465,-118.652,-45.410,0.000
1586464774.324,-213.379,430.664,158.691,286.621,0.000
1586464774.328,-427.734,-65.430,-199.707,26.855,0.000
1586464774.332,-258.789,-556.641,-355.957,-357.910,0.000
1586464774.336,-12.695,60.547,44.434,-180.664,0.000
1586464774.339,-122.559,382.812,172.363,266.113,0.000
1586464774.343,-363.770,-164.062,-123.047,156.250,0.000
1586464774.347,-284.180,-554.199,-348.633,-300.781,0.000
1586464774.351,-9.277,-517.090,-306.152,-305.664,0.000
1586464774.355,-36.133,25.879,18.555,165.527,0.000
1586464774.359,-351.074,337.402,135.254,228.027,0.000
1586464774.363,-347.168,-552.246,-405.762,-163.086,0.000
1586464774.367,-41.992,-678.223,-331.055,-344.727,0.000
1586464774.371,61.523,496.094,227.539,23.438,0.000
1586464774.375,-194.824,448.242,54.688,278.320,0.000
1586464774.378,-332.031,-176.270,-223.633,-72.754,0.000
1586464774.382,-80.078,-2.441,-204.102,-405.273,0.000
1586464774.386,135.254,346.680,-10.254,-83.496,0.000
1586464774.390,-51.758,89.844,-125.000,328.613,0.000
1586464774.394,-276.855,-294.922,-380.371,90.332,0.000
1586464774.398,-105.469,-378.906,-380.859,-332.520,0.000
1586464774.402,144.043,79.590,-71.289,-198.730,0.000
1586464774.406,27.832,307.129,8.789,256.348,0.000
1586464774.410,-253.418,-437.988,-340.332,208.984,0.000
1586464774.414,-178.711,-423.340,-301.758,-243.652,0.000
1586464774.418,110.840,211.914,-27.344,-324.219,0.000
1586464774.421,61.523,386.719,83.496,109.375,0.000
1586464774.425,-245.117,147.949,-24.414,209.473,0.000
1586464774.429,-278.320,2.930,-181.152,-213.379,0.000
1586464774.433,12.207,-125.000,-322.754,-414.062,0.000
1586464774.437,123.535,25.879,-153.809,6.836,0.000
1586464774.441,-149.414,122.070,-32.715,280.273,0.000
1586464774.445,-305.664,-347.656,-318.848,-31.250,0.000
1586464774.449,-77.637,-448.242,-365.723,-370.117,0.000
1586464774.453,154.785,-485.840,-344.238,-84.961,0.000
1586464774.457,-27.832,-400.391,-231.934,319.824,0.000
1586464774.461,-292.969,-61.523,-174.805,102.051,0.000
1586464774.464,-139.648,-138.672,-293.945,-320.801,0.000
1586464774.468,145.996,8.301,-74.219,-238.770,0.000
1586464774.472,68.359,465.820,145.996,217.773,0.000
1586464774.476,-237.793,445.801,108.887,203.613,0.000
1586464774.480,-191.406,-136.719,-194.336,-226.562,0.000
1586464774.484,139.648,-79.102,-142.090,-337.891,0.000
1586464774.488,165.527,573.242,205.566,99.609,0.000
1586464774.492,-145.020,370.117,82.031,266.602,0.000
1586464774.496,-227.539,-334.961,-315.918,-127.930,0.000
1586464774.500,51.758,-588.867,-395.508,-381.836,0.000
1586464774.503,184.570,79.590,16.113,-18.555,0.000
1586464774.507,-70.312,512.207,162.109,299.805,0.000
1586464774.511,-234.863,-137.695,-207.031,13.184,0.000
1586464774.515,-34.180,-347.656,-275.391,-379.395,0.000
1586464774.519,161.133,484.863,150.391,-157.227,0.000
1586464774.523,-12.695,759.277,208.984,289.062,0.000
1586464774.527,-259.277,11.719,-137.207,142.578,0.000
1586464774.531,-146.973,-397.949,-305.176,-294.434,0.000
1586464774.535,112.305,293.457,47.852,-247.559,0.000
1586464774.539,83.008,528.320,151.367,226.562,0.000
1586464774.543,-182.129,-391.602,-267.090,254.395,0.000
1586464774.546,-198.730,-699.707,-473.633,-205.566,0.000
1586464774.550,65.430,183.594,-117.676,-388.184,0.000
1586464774.554,129.395,593.262,70.312,80.566,0.000
1586464774.558,-171.875,382.324,-107.422,296.387,0.000
1586464774.562,-299.316,-60.059,-385.742,-92.285,0.000
1586464774.566,-42.480,69.824,-224.609,-382.812,0.000
1586464774.570,182.617,454.590,77.637,-19.043,0.000
1586464774.574,-15.625,250.977,62.012,354.980,0.000
1586464774.578,-249.023,53.711,-51.270,70.801,0.000
1586464774.582,-62.500,-7.812,-210.449,-348.633,0.000
1586464774.586,166.016,17.090,-232.422,-139.160,0.000
1586464774.589,6.836,-92.285,-174.805,316.895,0.000
1586464774.593,-297.363,138.672,3.906,145.508,0.000
1586464774.597,-201.660,197.754,-41.504,-317.383,0.000
1586464774.601,77.148,-2.441,-145.508,-310.059,0.000
1586464774.605,15.137,359.375,54.199,157.227,0.000
1586464774.609,-294.922,577.637,124.023,214.355,0.000
1586464774.613,-315.430,203.613,-99.121,-225.586,0.000
1586464774.617,-54.199,-38.086,-240.723,-404.785,0.000
1586464774.621,11.719,78.125,-48.828,43.457,0.000
1586464774.625,-226.562,9.277,-81.543,303.711,0.000
1586464774.628,-313.477,-225.098,-347.656,-69.824,0.000
1586464774.632,-71.289,-453.125,-399.414,-400.879,0.000
1586464774.636,67.871,-169.434,-120.605,-89.844,0.000
1586464774.640,-159.668,480.957,183.594,275.879,0.000
1586464774.644,-377.930,176.270,-61.035,58.594,0.000
1586464774.648,-209.473,-464.355,-363.770,-346.680,0.000
1586464774.652,68.359,-33.203,-44.434,-231.445,0.000
1586464774.656,-27.344,576.660,219.238,240.234,0.000
1586464774.660,-297.363,172.852,-37.598,188.965,0.000
1586464774.664,-217.285,-589.844,-317.871,-266.113,0.000
1586464774.668,75.195,-308.105,-74.707,-340.820,0.000
1586464774.671,92.773,549.316,255.371,125.977,0.000
1586464774.675,-179.199,257.324,28.320,264.160,0.000
1586464774.679,-231.445,-732.422,-424.805,-145.020,0.000
1586464774.683,32.715,-673.828,-356.934,-395.996,0.000
1586464774.687,158.203,260.742,97.168,-0.977,0.000
1586464774.691,-68.848,228.027,32.227,311.035,0.000
1586464774.695,-217.285,-581.543,-395.020,-18.066,0.000
1586464774.699,5.371,-142.090,-107.910,-416.016,0.000
1586464774.703,243.164,560.547,191.895,-136.719,0.000
1586464774.707,62.500,419.922,92.773,306.641,0.000
1586464774.711,-196.289,49.805,6.836,110.352,0.000
1586464774.714,-86.914,-217.285,-171.875,-325.195,0.000
1586464774.718,173.340,-3.906,-95.703,-233.398,0.000
1586464774.722,114.746,427.246,231.934,246.094,0.000
1586464774.726,-186.523,-33.203,-41.992,230.469,0.000
1586464774.730,-175.781,-260.254,-262.207,-235.352,0.000
1586464774.734,111.816,151.367,-10.742,-351.074,0.000
1586464774.738,167.480,250.000,150.391,131.836,0.000
1586464774.742,-90.820,243.164,126.953,302.734,0.000
1586464774.746,-173.340,145.996,13.184,-127.930,0.000
1586464774.750,74.707,-14.648,-49.805,-398.438,0.000
1586464774.753,248.047,84.473,49.805,-8.301,0.000
1586464774.757,16.602,301.270,138.184,335.449,0.000
1586464774.761,-179.688,174.316,30.273,28.809,0.000
1586464774.765,42.480,-149.902,-116.211,-366.699,0.000
1586464774.769,276.367,-547.363,-246.582,-103.027,0.000
