timestamps,TP9,AF7,AF8,TP10,Right AUX
1587070390.634,12.207,160.645,142.090,90.332,0.000
1587070390.637,69.336,271.973,371.582,170.898,0.000
1587070390.641,-56.152,-15.625,-32.227,-146.484,0.000
1587070390.645,-127.441,-219.727,-382.324,-274.414,0.000
1587070390.649,-19.043,136.230,57.617,32.715,0.000
1587070390.653,38.086,246.582,341.797,196.289,0.000
1587070390.657,-41.504,-71.289,-28.809,-38.574,0.000
1587070390.661,-131.836,-115.723,-225.586,-266.602,0.000
1587070390.665,-69.336,-11.230,-79.102,-70.801,0.000
1587070390.669,40.039,-172.363,-32.715,189.453,0.000
1587070390.673,-11.230,280.273,347.168,24.414,0.000
1587070390.677,-107.422,138.184,33.203,-257.324,0.000
1587070390.680,-82.520,-363.281,-442.383,-147.949,0.000
1587070390.684,24.414,326.660,302.246,141.113,0.000
1587070390.688,44.922,776.367,748.047,120.117,0.000
1587070390.692,-60.059,-228.516,-274.902,-183.105,0.000
1587070390.696,-102.539,-885.254,-934.082,-229.004,0.000
1587070390.700,-16.602,-365.234,-331.055,66.895,0.000
1587070390.704,27.344,375.488,429.688,135.254,0.000
1587070390.708,-57.617,325.195,282.715,-144.043,0.000
1587070390.712,-103.027,-618.164,-659.180,-258.301,0.000
1587070390.716,-18.555,-638.184,-653.809,5.371,0.000
1587070390.720,40.527,598.633,553.711,171.875,0.000
1587070390.723,-31.250,575.195,512.207,-48.828,0.000
1587070390.727,-109.375,-576.660,-609.863,-274.414,0.000
1587070390.731,-78.125,-332.031,-393.066,-104.004,0.000
1587070390.735,12.207,679.688,628.906,147.461,0.000
1587070390.739,0.488,347.168,367.676,35.645,0.000
1587070390.743,-86.914,-632.324,-616.699,-220.703,0.000
1587070390.747,-54.688,-733.398,-719.238,-115.234,0.000
1587070390.751,41.992,29.297,71.289,170.898,0.000
1587070390.755,27.832,365.234,429.199,111.816,0.000
1587070390.759,-73.242,-671.387,-626.953,-185.059,0.000
1587070390.762,-121.582,-825.195,-900.879,-242.676,0.000
1587070390.766,-29.785,251.465,161.133,46.875,0.000
1587070390.770,41.992,762.207,767.090,163.086,0.000
1587070390.774,-36.133,198.242,188.477,-108.887,0.000
1587070390.778,-111.328,-348.633,-461.426,-252.930,0.000
1587070390.782,-39.062,116.699,28.809,0.488,0.000
1587070390.786,58.594,558.594,572.266,212.891,0.000
1587070390.790,-13.184,287.598,293.457,7.324,0.000
1587070390.794,-107.910,-498.047,-532.715,-259.277,0.000
1587070390.798,-70.312,-600.098,-613.770,-120.605,0.000
1587070390.802,36.621,89.844,135.254,158.203,0.000
1587070390.805,33.203,346.680,395.020,72.266,0.000
1587070390.809,-96.680,-171.875,-216.797,-228.027,0.000
1587070390.813,-111.328,-281.250,-395.508,-198.242,0.000
1587070390.817,24.902,-27.832,6.348,126.953,0.000
1587070390.821,59.082,69.824,208.496,185.547,0.000
1587070390.825,-56.641,156.738,130.371,-143.066,0.000
1587070390.829,-111.328,-234.863,-335.449,-254.883,0.000
1587070390.833,-24.902,-11.230,-20.020,43.945,0.000
1587070390.837,47.363,692.871,718.750,179.688,0.000
1587070390.841,-20.020,173.828,150.391,-64.453,0.000
1587070390.845,-116.211,-803.711,-843.262,-258.301,0.000
1587070390.848,-74.219,-850.098,-755.859,-48.828,0.000
1587070390.852,6.348,283.203,374.512,184.082,0.000
1587070390.856,-33.203,807.129,757.324,10.254,0.000
1587070390.860,-115.234,-152.344,-233.398,-239.746,0.000
1587070390.864,-83.008,-634.766,-659.668,-121.582,0.000
1587070390.868,29.785,242.676,273.438,148.438,0.000
1587070390.872,51.270,755.371,730.469,105.469,0.000
1587070390.876,-57.617,-18.066,-97.168,-209.473,0.000
1587070390.880,-106.445,-443.848,-532.715,-223.145,0.000
1587070390.884,-18.066,159.668,104.492,83.008,0.000
1587070390.887,24.414,426.270,431.641,151.855,0.000
1587070390.891,-54.688,-333.496,-314.941,-110.840,0.000
1587070390.895,-115.234,-924.805,-949.707,-249.512,0.000
1587070390.899,-51.270,-27.832,-101.074,-4.883,0.000
1587070390.903,39.551,741.699,723.633,184.570,0.000
1587070390.907,-15.625,83.984,89.844,-43.457,0.000
1587070390.911,-105.957,-457.520,-529.297,-253.418,0.000
1587070390.915,-63.965,-17.090,-108.887,-70.801,0.000
1587070390.919,28.809,595.703,584.961,170.410,0.000
1587070390.923,28.320,234.375,304.199,46.387,0.000
1587070390.927,-84.961,-577.148,-564.453,-223.145,0.000
1587070390.930,-101.562,-303.711,-375.488,-148.438,0.000
1587070390.934,21.484,318.359,349.121,146.973,0.000
1587070390.938,50.781,-122.070,71.777,138.184,0.000
1587070390.942,-98.145,-505.859,-428.711,-207.031,0.000
1587070390.946,-160.156,-224.121,-298.340,-281.738,0.000
1587070390.950,-30.273,112.305,139.648,45.410,0.000
1587070390.954,24.414,538.574,614.746,151.367,0.000
1587070390.958,-65.918,260.742,257.324,-131.348,0.000
1587070390.962,-133.301,-410.645,-482.910,-277.832,0.000
1587070390.966,-38.086,-82.520,-122.070,-6.836,0.000
1587070390.970,50.781,588.867,634.766,190.430,0.000
1587070390.973,-36.621,549.805,549.316,-61.523,0.000
1587070390.977,-118.652,-131.836,-222.656,-297.852,0.000
1587070390.981,-53.223,-456.055,-465.820,-99.121,0.000
1587070390.985,28.809,89.355,175.293,144.043,0.000
1587070390.989,5.371,436.035,470.703,21.973,0.000
1587070390.993,-106.445,70.312,-14.160,-259.766,0.000
1587070390.997,-103.516,-611.816,-644.531,-187.988,0.000
1587070391.001,12.695,-393.555,-274.902,128.418,0.000
1587070391.005,29.297,647.461,655.273,123.047,0.000
1587070391.009,-58.105,126.953,45.410,-171.875,0.000
1587070391.012,-85.449,-746.094,-784.668,-228.027,0.000
1587070391.016,-16.602,-19.043,-46.387,46.875,0.000
1587070391.020,31.250,750.000,725.586,155.273,0.000
1587070391.024,-44.922,299.316,258.301,-111.328,0.000
1587070391.028,-113.281,-814.941,-830.078,-263.184,0.000
1587070391.032,-51.758,-474.609,-484.375,-20.996,0.000
1587070391.036,26.367,726.074,723.145,166.504,0.000
1587070391.040,-12.695,364.258,395.508,-13.184,0.000
1587070391.044,-83.008,-837.402,-830.078,-224.609,0.000
1587070391.048,-59.082,-465.820,-522.461,-101.074,0.000
1587070391.052,15.625,697.266,656.250,152.344,0.000
1587070391.055,15.625,633.789,654.785,69.336,0.000
1587070391.059,-98.633,-401.367,-387.695,-248.047,0.000
1587070391.063,-115.723,-424.805,-501.953,-217.285,0.000
1587070391.067,-8.789,440.430,382.812,91.309,0.000
1587070391.071,45.410,604.004,640.137,141.602,0.000
1587070391.075,-47.852,-413.574,-375.488,-150.879,0.000
1587070391.079,-133.301,-788.086,-823.730,-256.348,0.000
1587070391.083,-51.758,157.227,113.770,27.832,0.000
1587070391.087,38.574,533.691,596.191,180.176,0.000
1587070391.091,-31.738,47.852,83.984,-70.312,0.000
1587070391.095,-120.117,-298.340,-395.020,-265.625,0.000
1587070391.098,-54.688,-29.785,-102.539,-48.340,0.000
1587070391.102,52.734,14.160,123.047,199.219,0.000
1587070391.106,-3.418,-237.793,-114.258,13.184,0.000
1587070391.110,-135.742,-191.895,-263.184,-277.344,0.000
1587070391.114,-88.379,-178.223,-250.000,-126.953,0.000
1587070391.118,30.762,25.879,108.887,165.039,0.000
1587070391.122,15.137,115.234,217.773,102.051,0.000
1587070391.126,-93.262,-270.508,-290.039,-212.402,0.000
1587070391.130,-118.652,-432.617,-507.324,-222.168,0.000
1587070391.134,3.418,-562.988,-434.082,114.746,0.000
1587070391.137,29.785,91.797,228.027,166.992,0.000
1587070391.141,-81.055,290.527,233.887,-150.879,0.000
1587070391.145,-120.605,-435.547,-517.090,-260.742,0.000
1587070391.149,-21.973,-187.500,-195.312,33.203,0.000
1587070391.153,39.551,804.688,793.945,187.012,0.000
1587070391.157,-33.203,537.598,486.328,-58.594,0.000
1587070391.161,-101.074,-579.590,-645.996,-257.812,0.000
1587070391.165,-45.898,-382.324,-457.031,-46.387,0.000
1587070391.169,47.363,297.363,299.805,193.359,0.000
1587070391.173,-1.953,338.379,355.957,47.852,0.000
1587070391.177,-85.449,-492.188,-531.250,-201.660,0.000
1587070391.180,-64.941,-814.941,-849.121,-116.699,0.000
1587070391.184,3.418,419.434,384.277,132.324,0.000
1587070391.188,24.414,864.258,823.242,111.816,0.000
1587070391.192,-65.430,-268.066,-288.086,-165.039,0.000
1587070391.196,-110.840,-699.219,-747.559,-205.566,0.000
1587070391.200,-6.836,239.746,153.809,75.684,0.000
1587070391.204,73.242,676.758,631.348,169.434,0.000
1587070391.208,-41.504,-83.984,-92.773,-94.238,0.000
1587070391.212,-136.230,-675.293,-744.141,-241.211,0.000
1587070391.216,-36.133,-530.273,-543.945,15.625,0.000
1587070391.220,54.688,-5.371,103.027,204.590,0.000
1587070391.223,-6.348,-213.867,-95.703,-8.789,0.000
1587070391.227,-95.215,-555.664,-578.125,-264.648,0.000
1587070391.231,-58.105,-55.664,-151.855,-118.652,0.000
1587070391.235,33.203,538.574,546.387,142.578,0.000
1587070391.239,22.461,-236.816,-46.387,65.430,0.000
1587070391.243,-102.539,-616.211,-557.129,-236.328,0.000
1587070391.247,-114.746,-145.996,-257.324,-204.102,0.000
1587070391.251,-1.953,309.082,307.129,104.004,0.000
1587070391.255,29.297,624.512,653.320,117.676,0.000
1587070391.259,-66.406,166.504,100.098,-177.734,0.000
1587070391.262,-112.793,-484.863,-549.316,-237.793,0.000
1587070391.266,-18.555,-317.871,-255.859,69.824,0.000
1587070391.270,42.480,25.879,208.008,178.711,0.000
1587070391.274,-45.898,112.305,153.809,-90.820,0.000
1587070391.278,-111.816,-510.742,-563.477,-246.582,0.000
1587070391.282,-30.762,-399.902,-402.344,14.160,0.000
1587070391.286,42.969,576.172,586.914,208.984,0.000
1587070391.290,-16.602,666.504,620.117,-11.719,0.000
1587070391.294,-112.305,-150.879,-241.699,-263.184,0.000
1587070391.298,-78.125,-394.531,-430.176,-121.094,0.000
1587070391.302,10.254,509.277,490.723,133.301,0.000
1587070391.305,-0.488,795.898,729.492,39.551,0.000
1587070391.309,-93.750,-296.387,-345.215,-251.465,0.000
1587070391.313,-94.238,-860.352,-895.996,-211.426,0.000
1587070391.317,-8.789,108.398,49.805,84.961,0.000
1587070391.321,18.555,754.883,697.754,105.469,0.000
1587070391.325,-76.660,42.480,-26.367,-171.875,0.000
1587070391.329,-125.488,-752.441,-809.082,-242.676,0.000
1587070391.333,-43.457,-162.109,-175.293,22.461,0.000
1587070391.337,9.766,667.480,663.574,160.645,0.000
1587070391.341,-61.523,323.242,286.133,-69.336,0.000
1587070391.345,-129.395,-837.402,-850.586,-240.234,0.000
1587070391.348,-69.824,-329.102,-380.859,-39.062,0.000
1587070391.352,19.531,797.363,763.184,169.434,0.000
1587070391.356,-9.277,353.027,386.719,18.555,0.000
1587070391.360,-104.980,-539.062,-547.363,-231.934,0.000
1587070391.364,-95.703,-283.691,-379.395,-136.230,0.000
1587070391.368,7.812,517.090,457.031,133.789,0.000
1587070391.372,26.367,225.586,267.578,112.305,0.000
1587070391.376,-84.961,-851.562,-848.633,-174.805,0.000
1587070391.380,-137.207,-532.227,-644.043,-224.609,0.000
1587070391.384,-31.250,318.359,254.395,86.426,0.000
1587070391.387,26.367,399.414,411.621,166.504,0.000
1587070391.391,-62.012,-172.852,-204.590,-129.883,0.000
1587070391.395,-115.723,-632.324,-744.629,-268.555,0.000
1587070391.399,-21.484,-69.824,-164.551,-4.883,0.000
1587070391.403,48.340,223.633,276.367,203.613,0.000
1587070391.407,-34.180,-1.953,7.812,-44.922,0.000
1587070391.411,-127.930,-195.312,-345.215,-296.875,0.000
1587070391.415,-71.777,-71.289,-186.035,-82.520,0.000
1587070391.419,43.945,-121.582,7.812,186.523,0.000
1587070391.423,-2.930,145.020,199.219,29.785,0.000
1587070391.427,-107.910,109.863,-41.016,-250.488,0.000
1587070391.430,-61.035,-281.250,-405.762,-136.230,0.000
1587070391.434,27.832,311.523,273.438,147.949,0.000
1587070391.438,4.395,924.805,884.277,90.332,0.000
1587070391.442,-83.984,371.582,248.535,-199.707,0.000
1587070391.446,-98.633,-460.449,-569.336,-219.238,0.000
1587070391.450,-2.930,-242.188,-235.840,68.359,0.000
1587070391.454,57.129,261.719,304.199,172.363,0.000
1587070391.458,-55.176,-124.023,-133.789,-102.051,0.000
1587070391.462,-135.254,-847.168,-890.625,-238.281,0.000
1587070391.466,-45.410,-813.965,-831.055,13.184,0.000
1587070391.470,34.180,402.832,360.840,149.902,0.000
1587070391.473,-13.184,605.469,526.367,-59.570,0.000
1587070391.477,-102.051,-474.121,-543.945,-288.086,0.000
1587070391.481,-76.172,-316.406,-401.855,-130.859,0.000
1587070391.485,21.973,740.723,673.828,149.414,0.000
1587070391.489,34.180,730.469,685.547,50.781,0.000
1587070391.493,-63.965,-311.523,-371.582,-229.492,0.000
1587070391.497,-85.938,-624.512,-670.410,-166.504,0.000
1587070391.501,9.277,191.406,170.410,114.258,0.000
1587070391.505,39.551,708.496,693.848,117.188,0.000
1587070391.509,-45.898,-566.406,-545.898,-152.344,0.000
1587070391.512,-107.422,-892.578,-966.797,-226.074,0.000
1587070391.516,-25.391,234.375,139.648,43.945,0.000
1587070391.520,56.152,574.707,570.801,182.129,0.000
1587070391.524,-24.414,-63.965,-75.684,-84.961,0.000
1587070391.528,-94.238,-362.793,-480.469,-257.812,0.000
1587070391.532,-18.555,107.910,3.906,-3.906,0.000
1587070391.536,62.012,607.910,605.957,197.266,0.000
1587070391.540,11.719,445.801,443.359,11.230,0.000
1587070391.544,-83.984,-486.816,-520.020,-211.426,0.000
1587070391.548,-59.082,-544.434,-574.219,-76.172,0.000
1587070391.552,45.410,83.496,138.184,185.059,0.000
1587070391.555,23.438,-89.844,41.016,98.145,0.000
1587070391.559,-117.188,-199.219,-260.254,-239.258,0.000
1587070391.563,-120.605,-285.645,-413.086,-206.543,0.000
1587070391.567,17.090,-99.609,-65.430,136.719,0.000
1587070391.571,54.688,421.387,471.680,166.504,0.000
1587070391.575,-59.082,218.262,133.789,-151.855,0.000
1587070391.579,-109.863,-352.051,-462.891,-253.906,0.000
1587070391.583,-11.719,-380.371,-354.980,59.082,0.000
1587070391.587,57.617,433.594,478.027,207.520,0.000
1587070391.591,-26.855,356.934,341.309,-62.500,0.000
1587070391.595,-110.352,-590.332,-621.094,-254.395,0.000
1587070391.598,-20.508,-868.164,-773.438,-12.207,0.000
1587070391.602,49.316,104.980,205.078,212.402,0.000
1587070391.606,-9.277,806.152,764.160,22.461,0.000
1587070391.610,-89.844,-3.418,-88.379,-227.051,0.000
1587070391.614,-65.430,-397.461,-470.703,-96.191,0.000
1587070391.618,36.621,471.191,417.969,184.082,0.000
1587070391.622,38.574,943.848,895.996,133.789,0.000
1587070391.626,-72.754,-68.848,-126.465,-183.594,0.000
1587070391.630,-108.887,-648.438,-723.633,-238.281,0.000
1587070391.634,-20.508,313.965,252.930,48.828,0.000
1587070391.637,31.738,602.539,615.723,141.602,0.000
1587070391.641,-52.246,-282.227,-242.676,-143.555,0.000
1587070391.645,-113.770,-900.391,-918.945,-269.043,0.000
1587070391.649,-42.969,49.316,-41.992,-17.578,0.000
1587070391.653,32.715,957.031,924.805,161.133,0.000
1587070391.657,-33.203,301.270,297.363,-44.434,0.000
1587070391.661,-117.676,-421.875,-501.465,-271.484,0.000
1587070391.665,-66.406,11.719,-76.172,-79.102,0.000
1587070391.669,42.480,727.051,712.891,187.012,0.000
1587070391.673,31.738,367.676,392.090,55.664,0.000
1587070391.677,-98.145,-248.535,-324.707,-242.676,0.000
1587070391.680,-104.004,-204.590,-322.266,-178.223,0.000
1587070391.684,-3.906,30.762,44.922,110.352,0.000
1587070391.688,-3.418,-236.816,-75.684,97.168,0.000
1587070391.692,-115.723,-628.418,-558.105,-216.309,0.000
1587070391.696,-160.156,-495.117,-583.008,-270.996,0.000
1587070391.700,-47.852,-75.195,-62.500,52.734,0.000
1587070391.704,37.598,-165.527,36.621,198.730,0.000
1587070391.708,-50.781,-140.137,-91.797,-84.961,0.000
1587070391.712,-125.000,-286.621,-410.156,-269.531,0.000
1587070391.716,-39.551,-86.426,-153.320,-21.973,0.000
1587070391.720,37.598,461.914,481.934,179.688,0.000
1587070391.723,-18.066,499.512,479.492,-21.484,0.000
1587070391.727,-110.840,-25.879,-131.836,-280.273,0.000
1587070391.731,-66.895,-538.574,-548.828,-111.816,0.000
1587070391.735,27.832,-242.188,-115.234,169.922,0.000
1587070391.739,-16.113,435.059,463.379,22.461,0.000
1587070391.743,-107.422,-201.660,-254.395,-258.789,0.000
1587070391.747,-92.773,-858.398,-856.934,-188.477,0.000
1587070391.751,7.812,-262.207,-184.082,117.676,0.000
1587070391.755,37.109,708.008,707.031,125.488,0.000
1587070391.759,-56.641,307.617,234.375,-179.688,0.000
1587070391.762,-94.727,-551.270,-596.680,-236.328,0.000
1587070391.766,-6.836,18.066,-10.254,53.711,0.000
1587070391.770,36.621,838.379,801.758,159.668,0.000
1587070391.774,-42.480,357.422,303.711,-108.887,0.000
1587070391.778,-96.191,-813.965,-836.914,-242.676,0.000
1587070391.782,-34.668,-583.496,-578.125,-9.766,0.000
1587070391.786,46.875,642.090,625.488,197.266,0.000
1587070391.790,12.207,528.320,515.625,47.363,0.000
1587070391.794,-78.613,-743.652,-743.164,-208.496,0.000
1587070391.798,-57.617,-550.781,-598.145,-131.836,0.000
1587070391.802,35.156,351.074,369.141,126.465,0.000
1587070391.805,25.879,331.543,387.207,63.477,0.000
1587070391.809,-85.449,-254.395,-291.016,-238.770,0.000
1587070391.813,-103.516,-270.996,-371.582,-219.238,0.000
1587070391.817,4.395,507.812,464.844,91.309,0.000
1587070391.821,35.156,663.574,678.223,147.949,0.000
1587070391.825,-72.754,-346.191,-324.707,-146.484,0.000
1587070391.829,-125.000,-673.340,-720.215,-247.559,0.000
1587070391.833,-40.039,156.738,83.008,42.969,0.000
1587070391.837,40.039,437.988,506.836,187.988,0.000
1587070391.841,-42.480,30.273,83.008,-70.312,0.000
1587070391.845,-157.227,-263.672,-357.422,-291.992,0.000
1587070391.848,-85.449,-0.977,-89.355,-71.289,0.000
1587070391.852,30.762,184.570,271.484,196.777,0.000
1587070391.856,-28.809,-143.066,12.207,25.391,0.000
1587070391.860,-136.719,-507.812,-512.695,-273.438,0.000
1587070391.864,-105.469,-352.051,-419.434,-154.297,0.000
1587070391.868,-5.859,307.129,340.820,137.695,0.000
1587070391.872,19.043,349.121,435.547,103.027,0.000
1587070391.876,-74.707,-197.266,-198.730,-176.758,0.000
1587070391.880,-103.516,-491.211,-523.926,-201.660,0.000
1587070391.884,-1.465,-168.457,-87.402,97.168,0.000
1587070391.887,43.457,678.711,731.445,180.664,0.000
1587070391.891,-60.547,394.043,328.613,-127.441,0.000
1587070391.895,-123.535,-571.289,-631.836,-260.254,0.000
1587070391.899,-26.367,-885.742,-796.387,22.461,0.000
1587070391.903,23.926,271.973,346.191,166.504,0.000
1587070391.907,-44.922,587.891,536.133,-58.105,0.000
1587070391.911,-123.047,-453.125,-520.996,-253.906,0.000
1587070391.915,-73.730,-519.531,-535.156,-64.941,0.000
1587070391.919,34.668,298.828,347.168,188.965,0.000
1587070391.923,22.949,334.961,381.836,62.500,0.000
1587070391.927,-78.125,-583.008,-586.914,-221.191,0.000
1587070391.930,-86.426,-661.621,-711.426,-154.785,0.000
1587070391.934,12.207,362.793,330.078,131.348,0.000
1587070391.938,47.852,859.863,845.703,129.395,0.000
1587070391.942,-48.340,-144.043,-145.508,-161.133,0.000
1587070391.946,-100.098,-840.332,-891.113,-212.402,0.000
1587070391.950,-7.324,254.883,181.152,76.172,0.000
1587070391.954,44.922,902.832,910.156,195.801,0.000
1587070391.958,-38.086,73.242,81.055,-62.012,0.000
1587070391.962,-102.051,-536.133,-608.887,-220.703,0.000
1587070391.966,-25.391,-211.914,-235.840,2.441,0.000
1587070391.970,60.547,311.035,382.324,170.410,0.000
1587070391.973,29.297,-303.711,-178.223,-22.949,0.000
1587070391.977,-63.965,-964.844,-954.102,-275.879,0.000
1587070391.981,-58.105,-259.277,-376.953,-139.648,0.000
1587070391.985,42.969,504.395,464.355,143.066,0.000
1587070391.989,37.109,-221.680,-75.684,74.219,0.000
1587070391.993,-98.633,-708.008,-676.758,-223.633,0.000
1587070391.997,-105.469,-169.434,-301.758,-185.547,0.000
1587070392.001,35.645,297.363,257.812,139.648,0.000
1587070392.005,52.246,523.438,531.738,165.527,0.000
1587070392.009,-78.613,38.086,-20.996,-159.180,0.000
1587070392.012,-124.512,-689.453,-752.930,-249.512,0.000
1587070392.016,-12.695,-385.742,-332.031,55.664,0.000
1587070392.020,50.781,28.809,203.613,196.289,0.000
1587070392.024,-50.781,279.785,285.156,-84.961,0.000
1587070392.028,-132.812,-126.465,-252.930,-280.762,0.000
1587070392.032,-45.410,-291.992,-297.363,-40.527,0.000
1587070392.036,42.480,300.781,366.211,192.871,0.000
1587070392.040,-26.367,603.027,563.965,8.301,0.000
1587070392.044,-122.559,-38.574,-154.785,-250.000,0.000
1587070392.048,-75.195,-556.152,-611.328,-110.352,0.000
1587070392.052,29.297,284.668,267.578,162.109,0.000
1587070392.055,21.973,815.918,776.855,88.379,0.000
1587070392.059,-79.102,-207.520,-238.770,-202.148,0.000
1587070392.063,-106.934,-874.023,-894.531,-184.570,0.000
1587070392.067,-11.719,67.383,35.156,112.793,0.000
1587070392.071,41.016,715.820,679.199,166.504,0.000
1587070392.075,-51.270,-2.930,-46.875,-134.766,0.000
1587070392.079,-110.352,-861.328,-895.020,-246.094,0.000
1587070392.083,-33.203,-137.207,-194.336,42.969,0.000
1587070392.087,41.992,753.418,724.121,188.477,0.000
1587070392.091,-33.691,140.137,148.926,-62.012,0.000
1587070392.095,-127.930,-871.094,-887.695,-250.977,0.000
1587070392.098,-88.379,-218.750,-292.480,-70.312,0.000
1587070392.102,-1.953,882.324,849.609,145.508,0.000
1587070392.106,-11.230,308.105,346.680,18.555,0.000
1587070392.110,-100.098,-836.914,-858.398,-245.117,0.000
1587070392.114,-105.469,-353.516,-465.332,-156.250,0.000
1587070392.118,9.277,648.438,584.473,142.578,0.000
1587070392.122,50.293,522.461,559.082,113.770,0.000
1587070392.126,-71.289,-145.020,-160.645,-199.707,0.000
1587070392.130,-124.023,-288.086,-403.809,-237.793,0.000
1587070392.134,-15.137,245.605,176.270,67.871,0.000
1587070392.137,29.785,481.934,521.484,164.551,0.000
1587070392.141,-68.359,73.242,51.758,-124.023,0.000
1587070392.145,-128.906,-298.340,-422.363,-256.348,0.000
1587070392.149,-35.156,-14.648,-76.172,15.137,0.000
1587070392.153,62.988,292.969,373.535,182.617,0.000
1587070392.157,-8.789,-111.816,-31.250,-69.824,0.000
1587070392.161,-110.352,-483.887,-556.641,-307.617,0.000
1587070392.165,-50.781,-243.652,-311.035,-103.027,0.000
1587070392.169,72.754,-401.855,-235.352,194.336,0.000
1587070392.173,26.367,-40.527,43.945,41.504,0.000
1587070392.177,-111.328,35.645,-61.035,-273.926,0.000
1587070392.180,-96.191,-354.492,-423.340,-174.805,0.000
1587070392.184,11.230,138.672,136.230,130.859,0.000
1587070392.188,20.508,657.715,654.785,111.816,0.000
1587070392.192,-78.125,165.039,83.496,-186.523,0.000
1587070392.196,-99.121,-520.508,-604.492,-222.656,0.000
1587070392.200,8.789,-361.816,-340.820,84.961,0.000
1587070392.204,57.129,337.891,376.465,187.988,0.000
1587070392.208,-39.551,159.180,122.559,-77.637,0.000
1587070392.212,-112.793,-838.867,-878.906,-233.887,0.000
1587070392.216,-47.363,-678.711,-697.266,0.000,0.000
1587070392.220,29.297,642.578,610.352,180.664,0.000
1587070392.223,-22.949,608.398,572.754,-13.672,0.000
1587070392.227,-109.863,-633.301,-661.621,-253.418,0.000
1587070392.231,-84.473,-461.426,-539.062,-106.445,0.000
1587070392.235,11.719,619.141,566.406,163.086,0.000
1587070392.239,21.484,651.855,629.883,47.363,0.000
1587070392.243,-88.867,-486.816,-527.832,-247.070,0.000
1587070392.247,-108.887,-859.863,-867.676,-189.453,0.000
1587070392.251,5.859,83.008,92.285,105.469,0.000
1587070392.255,46.875,608.398,619.629,126.465,0.000
1587070392.259,-34.180,-585.938,-543.457,-154.297,0.000
1587070392.262,-93.750,-904.785,-974.609,-249.023,0.000
1587070392.266,-12.695,25.879,-59.570,36.133,0.000
1587070392.270,56.152,388.672,410.645,187.988,0.000
1587070392.274,-17.578,102.539,71.289,-68.848,0.000
1587070392.278,-95.703,-246.582,-390.625,-262.207,0.000
1587070392.282,-27.832,98.145,-20.020,-35.156,0.000
1587070392.286,58.594,572.754,560.059,177.246,0.000
1587070392.290,-3.906,437.012,415.527,-7.812,0.000
1587070392.294,-98.145,-408.203,-467.285,-254.883,0.000
1587070392.298,-52.734,-444.824,-522.949,-131.836,0.000
1587070392.302,60.059,69.824,81.543,178.711,0.000
1587070392.305,38.574,-200.195,-49.805,113.281,0.000
1587070392.309,-95.703,-122.559,-163.086,-222.656,0.000
1587070392.313,-108.887,-29.785,-181.641,-218.262,0.000
1587070392.317,11.230,218.750,188.477,100.098,0.000
1587070392.321,39.062,734.375,720.703,148.926,0.000
1587070392.325,-71.777,444.336,372.070,-161.621,0.000
1587070392.329,-114.746,-538.086,-607.422,-246.582,0.000
1587070392.333,-13.184,-242.676,-274.414,34.180,0.000
1587070392.337,45.898,710.938,685.059,182.617,0.000
1587070392.341,-28.809,269.531,258.301,-58.105,0.000
1587070392.345,-110.352,-740.234,-791.992,-270.508,0.000
1587070392.348,-45.410,-965.820,-982.910,-52.734,0.000
1587070392.352,40.527,104.004,152.832,190.430,0.000
1587070392.356,-3.418,742.188,689.453,25.879,0.000
1587070392.360,-100.586,-100.098,-214.355,-250.977,0.000
1587070392.364,-86.914,-431.152,-492.676,-160.156,0.000
1587070392.368,35.156,448.730,409.668,136.230,0.000
1587070392.372,52.734,851.562,804.199,124.023,0.000
1587070392.376,-81.055,-70.801,-134.277,-196.289,0.000
1587070392.380,-116.211,-659.180,-745.605,-226.562,0.000
1587070392.384,5.859,41.992,3.418,126.465,0.000
1587070392.387,44.434,402.344,449.219,195.801,0.000
1587070392.391,-51.270,-259.766,-214.355,-126.953,0.000
1587070392.395,-101.562,-889.160,-908.203,-244.141,0.000
1587070392.399,-41.016,-130.859,-198.730,12.207,0.000
1587070392.403,38.574,693.359,676.758,188.965,0.000
1587070392.407,-3.418,225.586,236.816,-20.996,0.000
1587070392.411,-90.820,-492.188,-564.941,-259.277,0.000
1587070392.415,-54.199,-109.375,-219.727,-81.055,0.000
1587070392.419,46.387,674.805,642.578,189.453,0.000
1587070392.423,32.715,327.148,382.812,68.848,0.000
1587070392.427,-87.891,-368.652,-389.160,-226.562,0.000
1587070392.430,-90.820,-326.172,-423.340,-174.805,0.000
1587070392.434,26.855,20.020,40.527,133.301,0.000
1587070392.438,61.035,-298.828,-138.184,164.062,0.000
1587070392.442,-49.805,-925.293,-848.633,-153.809,0.000
1587070392.446,-113.281,-760.254,-832.031,-225.586,0.000
1587070392.450,-20.996,40.039,2.441,67.871,0.000
1587070392.454,20.996,556.152,610.352,153.320,0.000
1587070392.458,-64.453,260.742,250.977,-108.398,0.000
1587070392.462,-119.629,-317.383,-399.902,-250.977,0.000
1587070392.466,-47.363,-130.859,-150.879,-6.348,0.000
1587070392.470,35.645,273.438,340.332,191.406,0.000
1587070392.473,-44.922,336.914,338.867,-34.668,0.000
1587070392.477,-135.254,-152.832,-238.770,-279.297,0.000
1587070392.481,-65.918,-438.965,-461.426,-94.238,0.000
1587070392.485,39.062,66.406,137.695,174.805,0.000
1587070392.489,28.809,493.652,510.254,69.336,0.000
1587070392.493,-76.172,94.238,17.578,-220.703,0.000
1587070392.497,-74.707,-622.559,-632.324,-182.129,0.000
1587070392.501,20.996,-550.293,-395.996,126.953,0.000
1587070392.505,32.227,388.672,455.566,149.414,0.000
1587070392.509,-64.941,198.242,121.582,-171.875,0.000
1587070392.512,-115.234,-558.594,-631.836,-265.137,0.000
1587070392.516,-50.293,78.125,9.766,11.719,0.000
1587070392.520,18.555,968.262,920.410,149.414,0.000
1587070392.524,-58.105,512.695,448.730,-104.004,0.000
1587070392.528,-125.000,-765.625,-799.805,-257.324,0.000
1587070392.532,-52.734,-583.008,-607.422,-24.902,0.000
1587070392.536,6.836,640.625,604.004,157.715,0.000
1587070392.540,-28.809,572.266,568.359,-7.812,0.000
1587070392.544,-86.426,-725.586,-724.609,-215.820,0.000
1587070392.548,-76.660,-526.367,-596.680,-98.633,0.000
1587070392.552,0.000,694.336,631.348,140.137,0.000
1587070392.555,-6.836,664.551,665.527,70.312,0.000
1587070392.559,-112.305,-415.039,-407.227,-222.656,0.000
1587070392.563,-129.883,-568.359,-624.023,-225.586,0.000
1587070392.567,-30.273,389.648,337.891,62.500,0.000
1587070392.571,25.879,641.113,660.645,141.602,0.000
1587070392.575,-64.941,-251.465,-203.613,-148.926,0.000
1587070392.579,-124.023,-705.078,-709.961,-277.344,0.000
1587070392.583,-51.270,23.438,-18.066,-12.207,0.000
1587070392.587,30.273,455.566,488.770,158.203,0.000
1587070392.591,-39.062,135.742,147.461,-79.590,0.000
1587070392.595,-133.789,-260.742,-336.426,-294.922,0.000
1587070392.598,-76.660,66.406,-19.043,-82.520,0.000
1587070392.602,36.133,239.746,313.477,181.641,0.000
1587070392.606,1.953,-331.055,-150.879,43.457,0.000
1587070392.610,-122.070,-280.762,-321.777,-255.859,0.000
1587070392.614,-89.844,-165.527,-266.113,-165.039,0.000
1587070392.618,29.297,48.828,99.121,141.113,0.000
1587070392.622,33.691,218.750,305.664,114.258,0.000
1587070392.626,-71.289,-307.617,-325.684,-199.219,0.000
1587070392.630,-106.445,-616.699,-693.848,-222.168,0.000
1587070392.634,13.184,-464.844,-390.625,111.816,0.000
1587070392.637,52.246,218.750,292.480,178.711,0.000
1587070392.641,-62.012,357.910,277.344,-104.492,0.000
1587070392.645,-116.699,-480.469,-562.988,-222.656,0.000
1587070392.649,-18.555,-886.719,-883.789,52.246,0.000
1587070392.653,46.387,256.836,271.484,191.895,0.000
1587070392.657,-20.020,616.699,565.430,-55.176,0.000
1587070392.661,-99.121,-321.777,-423.828,-250.977,0.000
1587070392.665,-52.734,-230.469,-304.688,-86.426,0.000
1587070392.669,61.523,441.895,453.125,161.621,0.000
1587070392.673,36.621,304.199,332.031,66.406,0.000
1587070392.677,-73.730,-560.059,-601.074,-208.496,0.000
1587070392.680,-62.988,-619.141,-711.914,-168.457,0.000
1587070392.684,18.066,421.875,346.191,108.887,0.000
1587070392.688,23.438,899.414,840.820,107.910,0.000
1587070392.692,-59.570,-206.543,-243.164,-163.086,0.000
1587070392.696,-106.934,-877.930,-929.199,-219.238,0.000
1587070392.700,-34.180,250.488,158.691,39.062,0.000
1587070392.704,24.902,920.898,891.602,148.926,0.000
1587070392.708,-55.664,183.105,182.617,-107.422,0.000
1587070392.712,-130.859,-401.855,-464.355,-278.320,0.000
1587070392.716,-39.062,-183.594,-210.938,-32.227,0.000
1587070392.720,78.125,305.664,359.375,181.641,0.000
1587070392.723,19.043,-285.156,-153.809,5.859,0.000
1587070392.727,-102.051,-779.785,-768.066,-247.070,0.000
1587070392.731,-55.176,-192.871,-302.734,-94.238,0.000
1587070392.735,52.246,288.574,302.734,187.500,0.000
1587070392.739,15.137,279.297,355.957,97.168,0.000
1587070392.743,-101.562,-60.059,-111.328,-192.871,0.000
1587070392.747,-98.633,-188.965,-313.965,-175.293,0.000
1587070392.751,17.090,288.574,257.812,121.094,0.000
1587070392.755,43.457,710.449,734.375,142.578,0.000
1587070392.759,-57.129,325.684,265.625,-161.621,0.000
1587070392.762,-104.004,-554.688,-623.047,-247.559,0.000
1587070392.766,-23.438,-312.500,-303.223,17.578,0.000
1587070392.770,41.992,623.047,636.719,153.320,0.000
1587070392.774,-39.551,455.566,395.508,-90.820,0.000
1587070392.778,-127.930,-218.262,-346.191,-288.086,0.000
1587070392.782,-55.664,-411.133,-435.059,-60.059,0.000
1587070392.786,22.461,41.992,148.438,162.598,0.000
1587070392.790,-40.039,415.039,414.551,-37.598,0.000
1587070392.794,-124.512,-322.266,-376.953,-276.855,0.000
1587070392.798,-86.914,-838.379,-824.219,-124.512,0.000
1587070392.802,-1.953,66.895,86.426,145.996,0.000
1587070392.805,3.906,762.695,749.023,91.797,0.000
1587070392.809,-57.617,-290.039,-285.645,-170.410,0.000
1587070392.813,-71.777,-1000.000,-1000.000,-186.035,0.000
1587070392.817,-26.367,-80.566,-87.402,69.824,0.000
1587070392.821,7.324,873.047,852.539,129.395,0.000
1587070392.825,-63.965,215.332,169.922,-146.484,0.000
1587070392.829,-120.605,-624.023,-659.668,-256.348,0.000
1587070392.833,-36.621,21.973,-6.348,34.668,0.000
1587070392.837,48.828,791.016,770.020,209.473,0.000
1587070392.841,-6.348,291.504,241.211,-53.223,0.000
1587070392.845,-91.797,-569.824,-643.066,-271.484,0.000
1587070392.848,-28.320,-383.301,-394.531,-57.129,0.000
1587070392.852,58.105,318.848,341.797,166.016,0.000
1587070392.856,19.043,114.258,158.691,17.090,0.000
1587070392.860,-104.492,-655.273,-642.090,-250.488,0.000
1587070392.864,-108.398,-269.043,-349.609,-173.340,0.000
1587070392.868,0.977,616.699,579.590,109.863,0.000
1587070392.872,20.508,492.676,546.387,104.004,0.000
1587070392.876,-90.332,-286.621,-291.016,-191.406,0.000
1587070392.880,-127.930,-435.547,-533.691,-240.234,0.000
1587070392.884,-24.902,241.211,181.641,63.477,0.000
1587070392.887,35.645,421.875,524.414,162.109,0.000
1587070392.891,-56.152,-166.504,-104.004,-130.859,0.000
1587070392.895,-136.230,-356.445,-452.637,-267.090,0.000
1587070392.899,-52.734,141.113,105.469,1.953,0.000
1587070392.903,47.363,119.629,273.926,190.918,0.000
1587070392.907,-18.555,-275.879,-153.809,-25.879,0.000
1587070392.911,-128.906,-502.441,-554.688,-275.391,0.000
1587070392.915,-73.730,-382.324,-446.289,-93.750,0.000
1587070392.919,35.156,1.953,81.055,187.500,0.000
1587070392.923,11.719,403.320,425.293,61.035,0.000
1587070392.927,-83.496,-117.188,-228.516,-238.281,0.000
1587070392.930,-84.473,-529.297,-618.164,-185.059,0.000
1587070392.934,1.953,264.160,262.695,126.953,0.000
1587070392.938,28.809,852.051,838.379,128.906,0.000
1587070392.942,-74.219,278.809,188.965,-177.734,0.000
1587070392.946,-99.609,-503.418,-553.223,-192.383,0.000
1587070392.950,-8.789,-312.012,-257.812,85.938,0.000
1587070392.954,36.621,388.672,447.266,174.316,0.000
1587070392.958,-47.363,365.723,333.984,-102.539,0.000
1587070392.962,-121.582,-564.453,-620.605,-275.391,0.000
1587070392.966,-38.574,-764.160,-773.926,-17.090,0.000
1587070392.970,42.969,256.348,296.387,181.152,0.000
1587070392.973,-26.367,523.438,525.879,-18.066,0.000
1587070392.977,-122.559,-372.559,-410.645,-268.066,0.000
1587070392.981,-84.473,-289.551,-345.215,-119.629,0.000
1587070392.985,21.484,595.215,561.035,154.297,0.000
1587070392.989,8.789,655.762,655.762,74.219,0.000
1587070392.993,-89.844,-320.312,-332.031,-207.520,0.000
1587070392.997,-91.309,-836.426,-860.840,-187.988,0.000
1587070393.001,-9.277,73.730,56.641,103.516,0.000
1587070393.005,27.832,669.922,691.406,160.156,0.000
1587070393.009,-44.434,-428.223,-338.379,-115.234,0.000
1587070393.012,-108.887,-729.980,-762.207,-236.816,0.000
1587070393.016,-18.066,232.910,140.625,12.207,0.000
1587070393.020,57.129,593.262,598.633,174.805,0.000
1587070393.024,-42.480,-446.777,-351.562,-50.781,0.000
1587070393.028,-135.254,-897.949,-896.484,-274.414,0.000
1587070393.032,-62.012,-76.660,-160.645,-58.105,0.000
1587070393.036,41.504,389.160,409.180,187.988,0.000
1587070393.040,-2.930,-395.508,-248.047,21.484,0.000
1587070393.044,-99.121,-890.625,-851.074,-245.605,0.000
1587070393.048,-77.637,-511.230,-569.824,-138.184,0.000
1587070393.052,6.348,57.129,91.797,139.160,0.000
1587070393.055,12.695,-93.750,46.387,101.562,0.000
1587070393.059,-100.098,-187.988,-228.027,-221.680,0.000
1587070393.063,-122.559,-194.824,-329.590,-241.699,0.000
1587070393.067,-2.930,20.996,5.859,79.102,0.000
1587070393.071,31.738,637.695,640.625,148.438,0.000
1587070393.075,-68.848,388.672,298.828,-148.926,0.000
1587070393.079,-118.652,-278.320,-400.879,-275.391,0.000
1587070393.083,-28.320,-355.469,-312.500,25.391,0.000
1587070393.087,53.223,214.844,323.242,193.359,0.000
1587070393.091,-31.738,91.797,114.746,-50.781,0.000
1587070393.095,-129.395,-687.012,-707.520,-265.625,0.000
1587070393.098,-58.105,-945.801,-919.922,-55.664,0.000
1587070393.102,27.832,-33.203,14.648,177.734,0.000
1587070393.106,-10.254,749.512,693.848,1.465,0.000
1587070393.110,-101.074,-77.637,-198.730,-261.719,0.000
1587070393.114,-100.098,-400.391,-494.141,-160.645,0.000
1587070393.118,5.371,536.133,475.098,135.254,0.000
1587070393.122,57.129,798.340,755.371,133.789,0.000
1587070393.126,-28.320,-40.039,-100.098,-167.480,0.000
1587070393.130,-93.750,-557.617,-632.324,-219.727,0.000
1587070393.134,-14.648,190.918,145.996,75.684,0.000
1587070393.137,48.828,606.445,625.488,186.523,0.000
1587070393.141,-30.273,-156.250,-117.676,-99.609,0.000
1587070393.145,-94.238,-902.832,-917.969,-237.793,0.000
1587070393.149,-44.434,-80.078,-159.180,-8.301,0.000
1587070393.153,28.320,958.008,938.965,172.852,0.000
1587070393.157,-16.113,520.996,562.988,-18.555,0.000
1587070393.161,-111.328,-378.418,-400.879,-268.555,0.000
1587070393.165,-75.684,-43.457,-116.211,-105.957,0.000
1587070393.169,27.832,773.438,764.160,175.781,0.000
1587070393.173,27.832,489.258,523.926,86.426,0.000
1587070393.177,-91.797,-168.457,-241.211,-229.980,0.000
1587070393.180,-104.980,-256.348,-383.301,-166.992,0.000
1587070393.184,13.672,62.988,67.383,152.344,0.000
1587070393.188,46.387,122.070,248.535,154.785,0.000
1587070393.192,-71.289,-100.098,-93.262,-153.320,0.000
1587070393.196,-118.652,-267.578,-393.066,-237.793,0.000
1587070393.200,-8.301,6.836,-22.949,61.035,0.000
1587070393.204,71.777,275.391,374.512,192.871,0.000
1587070393.208,-29.785,284.180,262.207,-88.867,0.000
1587070393.212,-137.695,-52.246,-183.105,-275.879,0.000
1587070393.216,-50.293,-12.695,-66.895,-24.902,0.000
1587070393.220,66.406,-416.016,-187.500,226.562,0.000
1587070393.223,-24.902,-398.926,-217.285,-5.371,0.000
1587070393.227,-137.207,-185.547,-265.625,-277.832,0.000
1587070393.231,-74.219,-449.707,-472.168,-103.516,0.000
1587070393.235,7.812,89.844,174.316,162.598,0.000
1587070393.239,1.465,520.020,556.641,71.289,0.000
1587070393.243,-92.285,53.223,-17.090,-221.680,0.000
1587070393.247,-105.469,-706.055,-731.934,-184.082,0.000
1587070393.251,-7.812,-530.762,-422.363,126.953,0.000
1587070393.255,15.625,684.570,729.980,139.160,0.000
1587070393.259,-74.219,267.090,230.957,-146.973,0.000
1587070393.262,-114.258,-767.090,-792.969,-215.332,0.000
1587070393.266,-16.113,-139.160,-157.715,28.809,0.000
1587070393.270,62.988,672.852,650.879,158.691,0.000
1587070393.274,-32.715,317.383,256.348,-66.895,0.000
1587070393.278,-119.141,-780.273,-812.012,-247.559,0.000
1587070393.282,-70.312,-603.027,-619.629,-53.711,0.000
1587070393.286,2.441,625.977,574.707,160.156,0.000
1587070393.290,-18.555,558.105,507.324,9.766,0.000
1587070393.294,-104.980,-756.836,-768.555,-245.117,0.000
1587070393.298,-93.262,-650.391,-694.824,-156.250,0.000
1587070393.302,-5.859,605.469,525.391,119.141,0.000
1587070393.305,1.465,698.242,668.457,99.609,0.000
1587070393.309,-98.633,-253.418,-275.879,-202.637,0.000
1587070393.313,-120.605,-422.363,-520.020,-225.586,0.000
1587070393.317,-4.395,169.922,120.117,90.820,0.000
1587070393.321,55.664,465.332,525.879,176.758,0.000
1587070393.325,-30.762,-209.961,-151.855,-103.027,0.000
1587070393.329,-116.211,-711.914,-750.977,-229.004,0.000
1587070393.333,-41.016,101.074,13.672,24.902,0.000
1587070393.337,52.246,412.598,483.398,198.242,0.000
1587070393.341,-9.277,-379.883,-213.867,-25.879,0.000
1587070393.345,-98.633,-493.652,-542.969,-252.441,0.000
1587070393.348,-51.270,-41.016,-124.512,-47.363,0.000
1587070393.352,53.223,439.941,498.047,194.336,0.000
1587070393.356,21.484,514.648,554.199,40.039,0.000
1587070393.360,-112.305,15.625,-50.781,-235.352,0.000
1587070393.364,-105.957,-228.516,-298.340,-151.855,0.000
1587070393.368,20.020,26.367,69.336,145.508,0.000
1587070393.372,37.109,174.316,260.254,131.836,0.000
1587070393.376,-95.215,-310.059,-289.062,-191.406,0.000
1587070393.380,-121.582,-704.102,-727.539,-231.934,0.000
1587070393.384,-2.441,-702.637,-575.684,92.285,0.000
1587070393.387,30.273,125.488,229.492,175.781,0.000
1587070393.391,-58.105,479.492,424.805,-104.004,0.000
1587070393.395,-107.910,-333.984,-397.949,-248.535,0.000
1587070393.399,-37.109,-95.703,-116.699,-3.418,0.000
1587070393.403,46.387,814.941,824.707,196.289,0.000
1587070393.407,3.418,677.246,637.207,5.859,0.000
1587070393.411,-94.727,-264.648,-333.496,-231.934,0.000
1587070393.415,-72.266,-353.516,-371.582,-77.637,0.000
1587070393.419,33.203,213.379,271.484,183.105,0.000
1587070393.423,31.250,346.191,404.785,65.430,0.000
1587070393.427,-81.055,-388.672,-394.043,-215.332,0.000
1587070393.430,-88.379,-986.816,-995.605,-159.180,0.000
1587070393.434,10.254,-118.652,-111.328,126.465,0.000
1587070393.438,30.762,444.336,470.703,148.438,0.000
1587070393.442,-56.152,-293.457,-282.715,-144.043,0.000
1587070393.446,-84.473,-590.820,-639.648,-199.707,0.000
1587070393.450,-8.789,296.387,234.375,75.684,0.000
1587070393.454,37.598,832.520,826.172,178.711,0.000
1587070393.458,-35.645,203.125,199.707,-90.332,0.000
1587070393.462,-117.676,-383.301,-476.562,-273.926,0.000
1587070393.466,-38.574,-220.703,-312.012,-31.738,0.000
1587070393.470,60.059,263.184,279.297,196.289,0.000
1587070393.473,7.324,-311.523,-212.402,24.902,0.000
1587070393.477,-106.934,-851.562,-891.602,-252.441,0.000
1587070393.481,-92.773,-178.711,-304.688,-131.836,0.000
1587070393.485,31.738,580.566,554.199,160.645,0.000
1587070393.489,40.039,582.520,604.004,90.820,0.000
1587070393.493,-84.961,-78.125,-102.051,-208.984,0.000
1587070393.497,-103.027,-447.754,-497.070,-190.430,0.000
1587070393.501,10.254,193.848,189.453,110.352,0.000
1587070393.505,42.480,705.566,735.840,152.832,0.000
1587070393.509,-64.453,265.625,224.121,-139.648,0.000
1587070393.512,-98.633,-646.484,-681.641,-232.422,0.000
1587070393.516,3.906,-320.312,-296.387,62.988,0.000
1587070393.520,60.059,612.793,646.973,216.309,0.000
1587070393.524,-36.621,456.055,413.574,-28.809,0.000
1587070393.528,-102.051,-240.234,-338.867,-239.258,0.000
1587070393.532,-21.484,-395.996,-373.047,-52.734,0.000
1587070393.536,57.617,281.738,370.117,179.199,0.000
1587070393.540,3.906,708.496,699.707,23.926,0.000
1587070393.544,-111.328,43.457,-30.273,-250.488,0.000
1587070393.548,-91.797,-665.527,-648.438,-132.324,0.000
1587070393.552,13.672,-157.227,-61.035,140.137,0.000
1587070393.555,12.695,511.719,556.641,73.242,0.000
1587070393.559,-94.238,-240.234,-238.281,-221.191,0.000
1587070393.563,-113.281,-853.516,-879.395,-230.469,0.000
1587070393.567,-16.602,88.379,70.801,81.543,0.000
1587070393.571,31.738,992.676,991.211,164.062,0.000
1587070393.575,-55.176,401.855,370.117,-117.676,0.000
1587070393.579,-109.375,-666.992,-678.223,-237.305,0.000
1587070393.583,-26.367,-76.172,-124.023,6.348,0.000
1587070393.587,31.250,854.980,808.105,176.270,0.000
1587070393.591,-26.367,253.906,242.676,-26.855,0.000
1587070393.595,-103.516,-894.043,-901.367,-220.703,0.000
1587070393.598,-75.684,-429.199,-483.887,-66.895,0.000
1587070393.602,22.949,658.203,607.910,172.363,0.000
1587070393.606,23.926,337.891,363.281,81.055,0.000
1587070393.610,-74.219,-779.297,-744.141,-203.125,0.000
1587070393.614,-96.680,-715.332,-747.559,-150.391,0.000
1587070393.618,-4.883,526.855,477.539,121.094,0.000
1587070393.622,50.293,662.109,689.453,125.000,0.000
1587070393.626,-22.949,-746.094,-712.402,-153.320,0.000
1587070393.630,-110.352,-681.152,-780.762,-241.211,0.000
1587070393.634,-12.695,347.168,258.789,40.527,0.000
1587070393.637,73.730,442.383,482.422,157.715,0.000
1587070393.641,-32.227,84.473,63.477,-132.812,0.000
1587070393.645,-103.027,-205.566,-335.938,-291.992,0.000
1587070393.649,-33.691,61.035,-34.180,-22.949,0.000
1587070393.653,64.453,-9.766,104.492,210.449,0.000
1587070393.657,6.836,-424.316,-276.367,-2.930,0.000
1587070393.661,-107.910,-203.125,-300.781,-279.297,0.000
1587070393.665,-70.312,-54.688,-157.227,-104.492,0.000
1587070393.669,48.340,-40.039,55.176,197.754,0.000
1587070393.673,25.391,222.656,271.973,88.379,0.000
1587070393.677,-102.539,20.508,-95.215,-222.656,0.000
1587070393.680,-101.074,-340.820,-457.031,-172.852,0.000
1587070393.684,10.254,178.711,156.738,124.023,0.000
1587070393.688,38.086,766.602,771.973,148.438,0.000
1587070393.692,-59.570,186.523,143.555,-159.180,0.000
1587070393.696,-111.328,-543.457,-604.980,-238.770,0.000
1587070393.700,-8.789,-266.602,-238.770,65.430,0.000
1587070393.704,62.988,467.773,517.578,201.172,0.000
1587070393.708,-26.855,433.105,387.207,-75.195,0.000
1587070393.712,-113.281,-496.582,-551.270,-271.973,0.000
1587070393.716,-33.691,-815.918,-813.965,-31.250,0.000
1587070393.720,48.340,519.043,509.766,175.781,0.000
1587070393.723,-0.488,833.008,806.152,6.348,0.000
1587070393.727,-92.773,-380.371,-404.785,-241.699,0.000
1587070393.731,-68.359,-418.945,-464.844,-130.859,0.000
1587070393.735,13.672,635.254,596.191,127.930,0.000
1587070393.739,21.484,803.711,782.715,60.547,0.000
1587070393.743,-69.824,-467.773,-452.637,-224.609,0.000
1587070393.747,-103.516,-1000.000,-1000.000,-217.773,0.000
1587070393.751,-12.207,-110.840,-116.211,82.520,0.000
1587070393.755,34.180,561.523,557.617,158.203,0.000
1587070393.759,-35.645,-526.855,-496.094,-101.074,0.000
1587070393.762,-109.863,-960.449,-997.070,-237.305,0.000
1587070393.766,-29.785,135.742,49.316,-6.348,0.000
1587070393.770,46.387,691.895,662.109,159.668,0.000
1587070393.774,-42.480,247.070,208.496,-66.895,0.000
1587070393.778,-118.164,-257.324,-381.348,-278.320,0.000
1587070393.782,-58.105,-44.434,-155.762,-68.359,0.000
1587070393.786,34.668,470.703,454.102,181.641,0.000
1587070393.790,30.273,411.133,398.926,71.777,0.000
1587070393.794,-68.848,-508.789,-557.617,-221.680,0.000
1587070393.798,-101.562,-583.496,-671.387,-193.848,0.000
1587070393.802,1.465,94.727,83.008,109.863,0.000
1587070393.805,35.645,-347.656,-176.758,104.980,0.000
1587070393.809,-104.980,-293.457,-308.594,-230.957,0.000
1587070393.813,-128.418,-138.672,-290.527,-253.906,0.000
1587070393.817,2.441,51.758,33.203,62.988,0.000
1587070393.821,42.969,568.848,574.219,141.113,0.000
1587070393.825,-62.988,394.043,294.434,-146.973,0.000
1587070393.829,-126.465,-213.867,-353.027,-271.973,0.000
1587070393.833,-15.625,-250.000,-296.875,8.301,0.000
1587070393.837,55.664,451.660,446.289,172.852,0.000
1587070393.841,-28.320,143.555,107.422,-75.195,0.000
1587070393.845,-102.539,-713.379,-745.117,-264.648,0.000
1587070393.848,-39.062,-963.867,-893.555,-56.641,0.000
1587070393.852,28.320,-83.984,18.066,161.621,0.000
1587070393.856,-8.301,823.730,780.273,32.715,0.000
1587070393.860,-111.816,8.301,-76.172,-235.352,0.000
1587070393.864,-112.793,-535.645,-590.332,-172.363,0.000
1587070393.868,-10.254,424.316,365.723,120.605,0.000
1587070393.872,21.973,944.824,875.977,128.418,0.000
1587070393.876,-65.918,214.355,129.883,-172.363,0.000
1587070393.880,-109.375,-408.691,-488.770,-243.652,0.000
1587070393.884,-19.043,160.156,105.957,37.109,0.000
1587070393.887,41.504,598.145,622.070,167.969,0.000
1587070393.891,-41.992,-80.566,-57.617,-97.168,0.000
1587070393.895,-108.887,-640.625,-698.242,-272.949,0.000
1587070393.899,-39.551,-121.094,-192.383,-27.832,0.000
1587070393.903,39.551,463.867,478.516,187.988,0.000
1587070393.907,-1.953,2.930,55.664,12.695,0.000
1587070393.911,-109.375,-851.074,-872.070,-226.562,0.000
1587070393.915,-89.355,-256.348,-362.305,-117.188,0.000
1587070393.919,29.785,610.840,566.895,154.297,0.000
1587070393.923,21.484,370.117,401.367,86.426,0.000
1587070393.927,-103.516,-62.500,-132.812,-216.309,0.000
1587070393.930,-106.445,-37.109,-175.781,-199.707,0.000
1587070393.934,19.043,223.145,205.078,123.535,0.000
1587070393.938,50.781,-162.109,-13.672,183.105,0.000
1587070393.942,-76.660,-636.230,-576.172,-141.113,0.000
1587070393.946,-143.555,-517.578,-637.695,-265.137,0.000
1587070393.950,-30.273,-64.941,-118.652,61.523,0.000
1587070393.954,34.668,428.223,464.355,209.473,0.000
1587070393.958,-53.223,290.527,264.648,-83.496,0.000
1587070393.962,-117.188,-483.398,-538.574,-279.785,0.000
1587070393.966,-53.223,-441.895,-471.680,-71.289,0.000
1587070393.970,50.781,395.996,374.023,158.691,0.000
1587070393.973,-9.766,646.484,578.613,8.301,0.000
1587070393.977,-128.906,-4.883,-127.930,-260.742,0.000
1587070393.981,-75.195,-566.895,-617.676,-151.367,0.000
1587070393.985,50.781,-120.117,-59.082,145.020,0.000
1587070393.989,27.832,542.480,530.273,96.191,0.000
1587070393.993,-116.211,61.523,-42.969,-235.840,0.000
1587070393.997,-135.742,-680.176,-724.121,-243.652,0.000
1587070394.001,-33.203,-202.148,-163.574,68.359,0.000
1587070394.005,-8.301,688.477,680.176,111.816,0.000
1587070394.009,-99.121,250.488,196.777,-176.758,0.000
1587070394.012,-150.391,-608.398,-642.578,-279.785,0.000
1587070394.016,-54.688,-149.902,-162.598,-1.465,0.000
1587070394.020,29.297,472.168,517.578,166.504,0.000
1587070394.024,-53.711,168.945,176.758,-87.402,0.000
1587070394.028,-141.113,-746.582,-755.859,-279.785,0.000
1587070394.032,-85.938,-569.824,-540.039,-71.777,0.000
1587070394.036,2.441,635.742,652.832,162.598,0.000
1587070394.040,-15.625,654.297,687.500,48.340,0.000
1587070394.044,-104.004,-660.156,-637.695,-220.703,0.000
1587070394.048,-106.445,-616.211,-684.082,-171.875,0.000
1587070394.052,-0.488,446.289,397.949,104.980,0.000
1587070394.055,29.297,499.512,517.090,78.125,0.000
1587070394.059,-80.566,-232.910,-273.438,-227.539,0.000
1587070394.063,-122.559,-378.906,-501.953,-262.207,0.000
1587070394.067,-16.113,394.531,314.453,49.316,0.000
1587070394.071,44.434,713.379,713.379,144.043,0.000
1587070394.075,-52.246,-149.902,-139.648,-125.000,0.000
1587070394.079,-117.676,-871.094,-896.973,-246.094,0.000
1587070394.083,-14.160,-282.227,-320.312,0.000,0.000
1587070394.087,73.730,302.246,347.656,200.684,0.000
1587070394.091,9.277,-510.254,-341.309,7.812,0.000
1587070394.095,-115.723,-621.094,-630.859,-258.789,0.000
1587070394.098,-75.684,-80.078,-175.781,-77.637,0.000
1587070394.102,45.410,277.344,298.828,191.406,0.000
1587070394.106,19.043,511.230,501.953,67.871,0.000
1587070394.110,-92.773,66.406,-38.086,-211.914,0.000
1587070394.114,-96.680,-531.738,-581.055,-160.156,0.000
1587070394.118,10.742,-300.293,-208.008,134.766,0.000
1587070394.122,23.438,60.059,166.016,142.578,0.000
1587070394.126,-87.891,-189.453,-207.520,-160.156,0.000
1587070394.130,-121.094,-422.852,-494.629,-213.379,0.000
1587070394.134,-11.230,-328.613,-258.301,92.773,0.000
1587070394.137,43.945,307.129,401.855,187.012,0.000
1587070394.141,-61.035,347.168,300.781,-96.191,0.000
1587070394.145,-125.488,-342.285,-444.336,-271.973,0.000
1587070394.149,-3.906,-924.805,-882.324,-16.113,0.000
1587070394.153,46.875,-89.844,23.438,193.359,0.000
1587070394.157,-49.805,582.520,569.824,-15.137,0.000
1587070394.161,-129.883,-214.844,-312.988,-253.906,0.000
1587070394.165,-90.820,-333.008,-404.785,-106.934,0.000
1587070394.169,7.812,235.352,254.883,159.180,0.000
1587070394.173,-5.371,382.324,406.250,74.219,0.000
1587070394.177,-113.770,-222.656,-262.207,-214.355,0.000
1587070394.180,-114.746,-626.465,-667.480,-177.734,0.000
1587070394.184,-4.395,387.695,347.168,114.746,0.000
1587070394.188,26.855,981.445,949.219,143.066,0.000
1587070394.192,-69.336,-115.234,-102.051,-141.602,0.000
1587070394.196,-116.699,-899.902,-887.207,-246.094,0.000
1587070394.200,-37.598,83.496,43.457,33.691,0.000
1587070394.204,19.531,770.996,770.020,194.336,0.000
1587070394.208,-46.387,-186.523,-107.422,-52.246,0.000
1587070394.212,-132.812,-880.859,-900.391,-291.992,0.000
1587070394.216,-65.430,-212.891,-275.391,-87.402,0.000
1587070394.220,59.082,338.867,384.277,194.336,0.000
1587070394.223,27.832,74.219,134.766,36.133,0.000
1587070394.227,-117.188,-262.207,-338.379,-276.367,0.000
1587070394.231,-119.141,-81.055,-227.051,-170.898,0.000
1587070394.235,18.555,522.461,478.027,141.113,0.000
1587070394.239,41.992,-62.012,83.984,108.398,0.000
1587070394.243,-93.750,-515.137,-497.070,-211.914,0.000
1587070394.247,-124.023,-207.520,-361.328,-227.539,0.000
1587070394.251,-0.977,45.898,25.879,95.215,0.000
1587070394.255,39.062,142.578,232.910,161.133,0.000
1587070394.259,-82.031,47.852,29.297,-146.973,0.000
1587070394.262,-142.090,-490.234,-571.289,-281.738,0.000
1587070394.266,-37.598,-597.656,-573.730,2.930,0.000
1587070394.270,51.758,-448.730,-283.203,199.219,0.000
1587070394.274,-42.969,-21.484,0.488,-57.129,0.000
1587070394.278,-137.695,-187.988,-289.551,-273.926,0.000
1587070394.282,-52.734,-365.723,-387.695,-60.059,0.000
1587070394.286,44.922,366.699,388.184,178.223,0.000
1587070394.290,5.859,693.359,666.016,41.504,0.000
1587070394.294,-90.332,41.992,-61.523,-221.680,0.000
1587070394.298,-78.125,-574.219,-588.867,-124.023,0.000
1587070394.302,7.324,227.051,258.789,145.996,0.000
1587070394.305,27.344,870.117,841.309,105.469,0.000
1587070394.309,-56.152,-181.641,-190.430,-189.941,0.000
1587070394.313,-100.098,-1000.000,-1000.000,-228.516,0.000
1587070394.317,-20.508,-213.379,-239.746,50.781,0.000
1587070394.321,22.949,831.055,786.133,138.184,0.000
1587070394.325,-44.922,187.988,155.762,-114.746,0.000
1587070394.329,-115.234,-566.895,-622.070,-261.230,0.000
1587070394.333,-55.664,3.418,-80.078,-12.207,0.000
1587070394.337,42.969,861.816,805.176,179.688,0.000
1587070394.341,-13.184,625.977,587.891,-24.414,0.000
1587070394.345,-120.117,-339.844,-404.297,-258.301,0.000
1587070394.348,-75.195,-160.645,-254.883,-87.891,0.000
1587070394.352,18.066,696.777,640.137,169.434,0.000
1587070394.356,-0.488,476.562,504.883,55.664,0.000
1587070394.360,-109.375,-446.777,-441.895,-230.957,0.000
1587070394.364,-114.746,-472.168,-555.664,-190.918,0.000
1587070394.368,-9.277,303.223,266.602,114.746,0.000
1587070394.372,24.414,215.332,279.297,160.645,0.000
1587070394.376,-74.707,-771.484,-722.656,-144.531,0.000
1587070394.380,-136.719,-541.992,-628.906,-240.723,0.000
1587070394.384,-23.438,271.973,199.219,61.523,0.000
1587070394.387,48.340,424.316,473.145,166.992,0.000
1587070394.391,-51.270,110.352,102.051,-116.699,0.000
1587070394.395,-135.254,-242.188,-361.328,-292.969,0.000
1587070394.399,-52.734,-20.020,-95.215,-39.062,0.000
1587070394.403,67.871,113.281,197.754,196.289,0.000
1587070394.407,-2.930,-27.832,49.316,0.000,0.000
1587070394.411,-131.348,-196.777,-278.320,-264.160,0.000
1587070394.415,-73.242,-340.820,-422.363,-110.352,0.000
1587070394.419,41.016,-322.266,-218.750,174.316,0.000
1587070394.423,-2.930,270.996,322.754,73.242,0.000
1587070394.427,-95.703,-45.410,-114.746,-221.680,0.000
1587070394.430,-90.332,-744.141,-759.277,-192.871,0.000
1587070394.434,-3.418,-149.414,-99.121,101.074,0.000
1587070394.438,27.344,638.184,652.344,151.855,0.000
1587070394.442,-78.613,265.625,198.730,-145.508,0.000
1587070394.446,-114.746,-609.863,-661.621,-250.977,0.000
1587070394.450,-16.113,-489.258,-437.988,33.203,0.000
1587070394.454,38.086,415.039,468.262,170.898,0.000
1587070394.458,-43.457,465.332,410.156,-88.379,0.000
1587070394.462,-115.723,-529.297,-603.516,-274.902,0.000
1587070394.466,-34.180,-753.418,-773.438,-38.574,0.000
1587070394.470,51.758,435.547,395.508,194.336,0.000
1587070394.473,0.000,629.883,559.082,26.855,0.000
1587070394.477,-119.629,-333.008,-395.508,-270.996,0.000
1587070394.481,-113.281,-340.820,-415.527,-184.082,0.000
1587070394.485,-1.465,458.984,434.570,121.094,0.000
1587070394.489,-0.488,423.828,458.008,79.590,0.000
1587070394.493,-105.957,-456.055,-464.844,-213.379,0.000
1587070394.497,-116.211,-921.875,-956.543,-216.309,0.000
1587070394.501,-41.016,-131.348,-159.668,68.848,0.000
1587070394.505,0.977,647.461,640.137,148.926,0.000
1587070394.509,-57.617,-435.547,-384.277,-110.352,0.000
1587070394.512,-131.836,-970.215,-1000.000,-258.301,0.000
1587070394.516,-54.688,121.582,20.508,-2.441,0.000
1587070394.520,33.203,601.562,616.211,184.570,0.000
1587070394.524,-32.227,-213.379,-119.629,-33.691,0.000
1587070394.528,-125.488,-497.070,-560.059,-271.973,0.000
1587070394.532,-73.242,-134.277,-260.742,-85.938,0.000
1587070394.536,24.902,329.590,315.430,179.199,0.000
1587070394.540,-10.742,422.852,419.922,47.852,0.000
1587070394.544,-123.535,-328.125,-358.398,-237.793,0.000
1587070394.548,-116.699,-484.375,-545.898,-159.668,0.000
1587070394.552,13.672,-80.566,-33.203,146.973,0.000
1587070394.555,47.363,-164.062,-1.465,147.949,0.000
1587070394.559,-76.172,-113.770,-158.203,-164.551,0.000
1587070394.563,-102.051,-297.852,-441.895,-245.605,0.000
1587070394.567,14.160,57.129,41.992,58.594,0.000
1587070394.571,55.176,765.137,786.621,176.758,0.000
1587070394.575,-63.477,495.117,409.668,-128.906,0.000
1587070394.579,-126.465,-237.305,-354.980,-273.438,0.000
1587070394.583,-26.855,-376.465,-388.184,9.766,0.000
1587070394.587,49.805,279.785,283.203,197.754,0.000
1587070394.591,-15.137,203.125,201.660,-9.766,0.000
1587070394.595,-122.559,-672.363,-674.316,-256.836,0.000
1587070394.598,-82.031,-949.219,-938.477,-94.727,0.000
1587070394.602,26.855,-262.695,-199.219,149.414,0.000
1587070394.606,12.207,305.176,334.473,24.414,0.000
1587070394.610,-104.492,-198.730,-252.441,-255.859,0.000
1587070394.614,-111.816,-543.945,-569.336,-192.871,0.000
1587070394.618,-25.879,389.160,382.324,83.496,0.000
1587070394.622,-12.695,925.781,916.992,93.750,0.000
1587070394.626,-126.953,136.230,118.652,-195.312,0.000
1587070394.630,-202.148,-532.227,-556.641,-294.922,0.000
1587070394.634,-108.887,91.309,74.219,-38.086,0.000
1587070394.637,-58.105,510.742,545.410,71.777,0.000
1587070394.641,-159.180,-175.293,-103.516,-175.781,0.000
1587070394.645,-250.000,-857.910,-868.652,-391.602,0.000
1587070394.649,-227.051,-128.418,-180.176,-222.168,0.000
1587070394.653,-151.367,688.477,691.406,-2.930,0.000
1587070394.657,-183.594,195.801,236.816,-162.598,0.000
1587070394.661,-281.738,-642.578,-609.863,-427.734,0.000
1587070394.665,-264.648,-469.238,-473.633,-303.223,0.000
1587070394.669,-158.203,460.449,477.051,-29.785,0.000
1587070394.673,-150.391,304.688,421.875,-93.750,0.000
1587070394.677,-261.230,-342.285,-278.320,-400.391,0.000
1587070394.680,-290.527,-230.957,-270.996,-408.203,0.000
1587070394.684,-161.133,72.266,147.949,-95.215,0.000
1587070394.688,-95.703,139.160,331.543,-23.926,0.000
1587070394.692,-221.191,41.992,110.352,-324.219,0.000
1587070394.696,-280.273,-232.422,-257.812,-437.988,0.000
1587070394.700,-175.293,151.855,193.359,-156.738,0.000
1587070394.704,-55.664,-104.492,172.363,56.641,0.000
1587070394.708,-97.656,-772.949,-464.355,-154.785,0.000
1587070394.712,-206.055,-295.898,-282.227,-394.531,0.000
1587070394.716,-132.324,-97.168,-100.098,-184.570,0.000
1587070394.720,-1.465,-115.234,61.523,75.684,0.000
1587070394.723,-32.227,225.586,330.078,-50.293,0.000
1587070394.727,-115.234,63.477,19.531,-303.711,0.000
1587070394.731,-69.336,-426.270,-406.250,-184.570,0.000
1587070394.735,46.875,-291.504,-130.859,131.348,0.000
1587070394.739,66.406,480.957,561.035,95.215,0.000
1587070394.743,-5.371,233.398,189.453,-179.199,0.000
1587070394.747,-18.555,-666.992,-639.648,-176.758,0.000
1587070394.751,59.570,-325.684,-191.895,104.492,0.000
1587070394.755,97.168,819.336,893.555,183.105,0.000
1587070394.759,43.945,510.742,530.762,-65.430,0.000
1587070394.762,-15.137,-332.520,-316.406,-204.102,0.000
1587070394.766,55.176,25.879,47.363,47.852,0.000
1587070394.770,139.648,796.387,828.125,230.469,0.000
1587070394.774,87.402,596.191,628.906,20.996,0.000
1587070394.778,17.578,-546.875,-469.238,-172.852,0.000
1587070394.782,62.012,-651.367,-562.988,-10.254,0.000
1587070394.786,129.395,345.215,392.578,201.660,0.000
1587070394.790,110.840,632.324,656.250,91.797,0.000
1587070394.794,46.387,-584.473,-543.457,-140.137,0.000
1587070394.798,22.461,-557.129,-593.262,-88.867,0.000
1587070394.802,91.309,568.848,509.277,173.828,0.000
1587070394.805,123.535,709.961,706.055,192.383,0.000
1587070394.809,28.320,79.590,53.223,-91.797,0.000
1587070394.813,-12.207,-203.613,-278.809,-165.527,0.000
1587070394.817,66.895,380.371,344.238,107.910,0.000
1587070394.821,122.559,719.238,741.699,208.496,0.000
1587070394.825,65.430,-19.531,20.996,-25.391,0.000
1587070394.829,-13.184,-573.730,-596.680,-172.363,0.000
1587070394.833,29.297,43.945,-20.508,59.570,0.000
1587070394.837,112.305,254.883,329.102,271.484,0.000
1587070394.841,79.590,-421.875,-246.582,93.750,0.000
1587070394.845,-12.695,-256.836,-254.883,-193.359,0.000
1587070394.848,-1.953,40.527,-5.371,-92.285,0.000
1587070394.852,83.496,192.871,264.648,177.734,0.000
1587070394.856,108.887,389.648,451.660,127.930,0.000
1587070394.860,28.320,100.098,49.805,-143.066,0.000
1587070394.864,-19.531,-222.168,-287.598,-131.836,0.000
1587070394.868,58.594,-45.410,-2.930,136.719,0.000
1587070394.872,105.469,153.809,280.273,182.129,0.000
1587070394.876,23.926,-83.984,-29.297,-74.219,0.000
1587070394.880,-47.363,-269.043,-306.152,-189.453,0.000
1587070394.884,26.855,-553.711,-422.852,78.125,0.000
1587070394.887,78.125,187.012,340.820,203.125,0.000
1587070394.891,3.418,602.539,593.262,-34.180,0.000
1587070394.895,-71.777,-351.074,-377.441,-199.219,0.000
1587070394.899,-25.879,-359.863,-325.684,-18.555,0.000
1587070394.903,56.152,423.828,467.285,183.594,0.000
1587070394.907,15.137,597.168,603.516,48.828,0.000
1587070394.911,-74.707,-24.902,-48.828,-193.359,0.000
1587070394.915,-61.523,-240.723,-258.301,-98.145,0.000
1587070394.919,43.945,123.535,179.688,173.340,0.000
1587070394.923,54.199,394.531,454.590,134.277,0.000
1587070394.927,-48.340,-90.332,-86.914,-127.930,0.000
1587070394.930,-67.871,-799.805,-806.152,-130.371,0.000
1587070394.934,6.836,50.293,46.875,107.422,0.000
1587070394.938,52.734,768.555,769.043,167.480,0.000
1587070394.942,-20.020,-10.254,11.230,-90.332,0.000
1587070394.946,-99.609,-634.277,-625.977,-235.840,0.000
1587070394.950,-25.879,-52.246,-89.355,8.789,0.000
1587070394.954,80.078,460.938,492.188,205.078,0.000
1587070394.958,32.227,-251.953,-140.137,2.930,0.000
1587070394.962,-87.891,-950.684,-953.125,-247.070,0.000
1587070394.966,-56.641,-436.523,-470.703,-83.984,0.000
1587070394.970,34.668,154.297,195.312,172.852,0.000
1587070394.973,0.488,17.578,87.402,35.645,0.000
1587070394.977,-119.141,-228.516,-270.020,-239.258,0.000
1587070394.981,-106.934,28.809,-109.375,-165.527,0.000
1587070394.985,35.645,396.484,340.332,129.395,0.000
1587070394.989,65.430,-185.547,-62.012,143.555,0.000
1587070394.993,-81.055,-421.387,-372.559,-190.430,0.000
1587070394.997,-125.977,-141.113,-243.652,-242.188,0.000
1587070395.001,-6.348,58.594,34.180,85.449,0.000
1587070395.005,40.527,324.219,372.070,174.805,0.000
1587070395.009,-63.965,241.211,217.285,-101.562,0.000
1587070395.012,-134.277,-305.664,-360.352,-235.352,0.000
1587070395.016,-40.527,-427.734,-412.598,7.324,0.000
1587070395.020,54.688,-458.984,-272.949,193.848,0.000
1587070395.024,-34.668,9.766,72.754,-28.320,0.000
1587070395.028,-134.277,59.570,-67.871,-262.207,0.000
1587070395.032,-53.223,-431.152,-449.707,-83.984,0.000
1587070395.036,49.805,-231.934,-125.977,177.246,0.000
1587070395.040,11.230,606.934,580.078,61.035,0.000
1587070395.044,-89.355,244.629,146.973,-208.496,0.000
1587070395.048,-79.590,-572.754,-596.680,-149.902,0.000
1587070395.052,12.695,222.168,212.891,115.723,0.000
1587070395.055,35.645,900.879,856.934,117.188,0.000
1587070395.059,-57.129,-132.324,-149.902,-146.973,0.000
1587070395.063,-109.863,-844.238,-852.051,-211.426,0.000
1587070395.067,-27.832,106.934,92.773,46.387,0.000
1587070395.071,37.109,714.844,734.375,153.809,0.000
1587070395.075,-53.223,175.781,185.059,-106.445,0.000
1587070395.079,-119.629,-775.391,-779.297,-228.516,0.000
1587070395.083,-42.480,-245.117,-274.414,-6.836,0.000
1587070395.087,32.227,955.566,929.199,145.508,0.000
1587070395.091,-17.578,599.121,567.871,-24.902,0.000
1587070395.095,-101.074,-386.719,-438.477,-250.000,0.000
1587070395.098,-73.242,-130.371,-229.492,-130.371,0.000
1587070395.102,23.926,608.887,534.668,140.625,0.000
1587070395.106,33.203,237.793,279.785,90.332,0.000
1587070395.110,-63.477,-749.023,-712.891,-185.059,0.000
1587070395.114,-101.562,-334.473,-403.809,-186.523,0.000
1587070395.118,-5.859,598.145,541.016,83.984,0.000
1587070395.122,19.043,628.418,644.043,120.605,0.000
1587070395.126,-94.727,22.949,42.969,-173.828,0.000
1587070395.130,-146.484,-447.266,-451.172,-262.695,0.000
1587070395.134,-49.805,93.750,83.496,11.230,0.000
1587070395.137,34.180,561.035,597.168,157.227,0.000
1587070395.141,-52.246,293.457,308.105,-82.520,0.000
1587070395.145,-131.348,-209.961,-255.371,-268.066,0.000
1587070395.149,-57.129,-73.730,-98.145,-54.199,0.000
1587070395.153,30.762,137.207,229.980,179.688,0.000
1587070395.157,-17.090,106.934,188.477,18.555,0.000
1587070395.161,-127.930,23.926,-21.973,-248.047,0.000
1587070395.165,-80.078,-259.277,-291.992,-136.230,0.000
1587070395.169,39.062,-119.629,-16.602,144.043,0.000
1587070395.173,23.438,530.762,585.938,102.051,0.000
1587070395.177,-82.031,231.445,143.555,-175.293,0.000
1587070395.180,-105.957,-471.191,-524.902,-191.406,0.000
1587070395.184,4.883,-474.121,-328.125,99.121,0.000
1587070395.188,49.805,240.723,377.441,158.203,0.000
1587070395.192,-61.523,202.148,203.613,-132.324,0.000
1587070395.196,-125.000,-392.090,-414.551,-238.770,0.000
1587070395.200,-15.137,-324.219,-270.020,34.668,0.000
1587070395.204,67.383,313.965,387.695,192.871,0.000
1587070395.208,-23.438,423.828,421.875,-14.648,0.000
1587070395.212,-103.027,-440.430,-469.727,-219.238,0.000
1587070395.216,-52.246,-554.688,-593.750,-54.199,0.000
1587070395.220,47.852,411.133,375.000,179.199,0.000
1587070395.223,24.414,603.516,596.191,71.289,0.000
1587070395.227,-95.215,-408.691,-387.695,-181.152,0.000
1587070395.231,-76.172,-662.109,-669.434,-104.980,0.000
1587070395.235,20.996,463.867,438.965,144.043,0.000
1587070395.239,32.715,745.117,745.605,112.793,0.000
1587070395.243,-56.641,-524.414,-498.047,-148.438,0.000
1587070395.247,-80.566,-1000.000,-1000.000,-175.293,0.000
1587070395.251,14.160,-216.797,-205.566,73.242,0.000
1587070395.255,45.410,407.715,438.477,146.973,0.000
1587070395.259,-44.434,-388.672,-318.848,-88.379,0.000
1587070395.262,-125.977,-874.512,-909.668,-250.000,0.000
1587070395.266,-50.293,83.984,-9.766,-17.578,0.000
1587070395.270,65.430,672.363,643.555,226.562,0.000
1587070395.274,2.441,244.629,220.703,16.602,0.000
1587070395.278,-118.164,-266.602,-388.184,-246.582,0.000
1587070395.282,-74.707,-180.176,-317.871,-94.238,0.000
1587070395.286,37.109,375.000,320.312,148.926,0.000
1587070395.290,30.762,471.680,441.895,62.500,0.000
1587070395.294,-61.523,-348.633,-407.227,-198.730,0.000
1587070395.298,-90.332,-554.688,-641.113,-155.273,0.000
1587070395.302,4.395,25.879,-2.441,128.418,0.000
1587070395.305,27.344,121.582,145.508,138.672,0.000
1587070395.309,-96.191,-9.277,-132.324,-160.156,0.000
1587070395.313,-132.324,-186.523,-379.883,-228.027,0.000
1587070395.317,-5.371,-122.559,-205.566,56.641,0.000
1587070395.321,56.152,365.723,337.891,169.922,0.000
1587070395.325,-40.527,440.430,319.824,-99.609,0.000
1587070395.329,-119.141,-158.691,-310.547,-266.113,0.000
1587070395.333,-35.156,-429.199,-458.984,-15.625,0.000
1587070395.337,73.242,193.848,191.895,187.988,0.000
1587070395.341,9.277,89.355,58.105,-2.441,0.000
1587070395.345,-111.816,-693.359,-737.793,-238.770,0.000
1587070395.348,-84.961,-816.406,-841.797,-107.910,0.000
1587070395.352,5.371,132.324,112.305,136.719,0.000
1587070395.356,-2.930,723.633,652.832,65.430,0.000
1587070395.360,-94.727,-67.383,-135.254,-206.055,0.000
1587070395.364,-103.027,-963.379,-979.004,-160.645,0.000
1587070395.368,-13.672,-300.293,-336.426,118.164,0.000
1587070395.372,14.648,802.734,716.309,139.160,0.000
1587070395.376,-73.242,158.203,96.191,-130.859,0.000
1587070395.380,-126.953,-837.402,-878.906,-225.586,0.000
1587070395.384,-35.156,-67.871,-160.156,29.785,0.000
1587070395.387,53.711,590.332,567.383,200.684,0.000
1587070395.391,-18.555,-64.453,-45.410,-15.137,0.000
1587070395.395,-113.281,-857.910,-880.859,-227.539,0.000
1587070395.399,-69.824,-313.477,-391.602,-60.059,0.000
1587070395.403,40.527,520.020,449.219,162.598,0.000
1587070395.407,6.348,318.359,297.852,34.180,0.000
1587070395.411,-105.957,-144.531,-204.590,-235.352,0.000
1587070395.415,-79.102,22.461,-80.566,-145.996,0.000
1587070395.419,36.621,504.883,458.496,154.297,0.000
1587070395.423,42.969,393.066,414.062,110.352,0.000
1587070395.427,-87.402,-102.539,-162.109,-192.871,0.000
1587070395.430,-126.465,-280.762,-399.414,-201.172,0.000
1587070395.434,3.906,-67.871,-82.031,80.078,0.000
1587070395.438,63.477,-166.016,-20.020,150.879,0.000
1587070395.442,-51.758,-379.883,-299.805,-137.695,0.000
1587070395.446,-127.930,-206.055,-305.664,-270.020,0.000
1587070395.450,-26.855,99.609,32.227,-1.465,0.000
1587070395.454,60.547,420.898,431.641,178.711,0.000
1587070395.458,-30.762,380.859,356.445,-24.902,0.000
1587070395.462,-120.605,-125.488,-218.262,-255.371,0.000
1587070395.466,-66.406,-132.812,-201.172,-87.402,0.000
1587070395.470,16.113,435.547,430.664,145.020,0.000
1587070395.473,-18.066,572.754,541.504,20.020,0.000
1587070395.477,-128.906,-98.145,-172.852,-240.234,0.000
1587070395.481,-108.887,-761.719,-796.387,-175.293,0.000
1587070395.485,13.672,-381.348,-317.871,111.816,0.000
1587070395.489,16.113,342.773,374.512,104.004,0.000
1587070395.493,-104.980,139.648,74.219,-197.754,0.000
1587070395.497,-125.488,-672.363,-692.383,-229.492,0.000
1587070395.501,-17.090,-456.055,-413.574,63.965,0.000
1587070395.505,33.203,633.789,623.047,137.695,0.000
1587070395.509,-61.035,346.191,283.691,-121.094,0.000
1587070395.512,-132.812,-631.348,-676.758,-246.094,0.000
1587070395.516,-44.922,-293.945,-307.129,-20.020,0.000
1587070395.520,49.805,715.820,716.797,157.715,0.000
1587070395.524,-11.719,625.000,618.652,-17.578,0.000
1587070395.528,-109.375,-684.082,-665.039,-229.004,0.000
1587070395.532,-61.035,-786.133,-763.672,-92.285,0.000
1587070395.536,53.711,361.816,372.559,149.414,0.000
1587070395.540,35.156,224.609,280.273,77.637,0.000
1587070395.544,-80.566,-797.363,-769.043,-170.410,0.000
1587070395.548,-113.281,-566.406,-630.859,-162.109,0.000
1587070395.552,-13.672,411.133,354.492,92.285,0.000
1587070395.555,29.297,520.508,524.902,130.859,0.000
1587070395.559,-87.402,-120.117,-132.812,-161.133,0.000
1587070395.563,-143.555,-366.699,-446.777,-257.812,0.000
1587070395.567,-33.203,270.996,194.824,24.902,0.000
1587070395.571,52.734,699.707,693.359,154.297,0.000
1587070395.575,-29.297,-97.656,-40.039,-92.285,0.000
1587070395.579,-121.582,-759.277,-749.023,-256.348,0.000
1587070395.583,-56.152,-39.062,-115.723,-41.504,0.000
1587070395.587,49.316,356.934,373.047,166.016,0.000
1587070395.591,9.277,-629.395,-458.984,36.133,0.000
1587070395.595,-108.887,-778.809,-765.625,-226.074,0.000
1587070395.598,-89.844,-391.602,-442.871,-133.789,0.000
1587070395.602,20.996,69.336,87.891,133.789,0.000
1587070395.606,15.137,509.766,490.234,78.125,0.000
1587070395.610,-101.562,137.207,44.434,-196.289,0.000
1587070395.614,-101.562,-234.863,-317.871,-199.219,0.000
1587070395.618,20.996,-172.363,-133.789,100.586,0.000
1587070395.622,40.039,206.055,288.086,144.531,0.000
1587070395.626,-85.449,56.152,46.875,-148.926,0.000
1587070395.630,-135.254,-335.449,-427.246,-243.164,0.000
1587070395.634,-16.113,-674.805,-602.539,53.223,0.000
1587070395.637,48.340,6.348,100.586,190.430,0.000
1587070395.641,-44.922,532.715,442.871,-77.637,0.000
1587070395.645,-114.746,-299.805,-399.414,-268.066,0.000
1587070395.649,-27.344,-500.000,-513.672,-56.641,0.000
1587070395.653,54.688,443.848,453.125,160.645,0.000
1587070395.657,7.812,441.406,437.012,33.203,0.000
1587070395.661,-96.680,-398.926,-456.055,-213.867,0.000
1587070395.665,-79.102,-465.332,-534.180,-132.324,0.000
1587070395.669,23.438,71.289,57.129,140.625,0.000
1587070395.673,21.973,127.930,155.762,92.285,0.000
1587070395.677,-89.355,-461.426,-453.613,-192.383,0.000
1587070395.680,-109.375,-849.121,-872.559,-207.520,0.000
1587070395.684,5.859,267.090,191.895,72.754,0.000
1587070395.688,60.059,970.703,891.113,158.691,0.000
1587070395.692,-53.711,103.027,80.566,-106.445,0.000
1587070395.696,-135.742,-413.086,-476.074,-232.422,0.000
1587070395.700,-45.898,219.727,123.047,20.996,0.000
1587070395.704,46.387,810.547,763.672,174.805,0.000
1587070395.708,-6.348,270.996,247.559,-44.922,0.000
1587070395.712,-101.074,-456.055,-527.832,-250.977,0.000
1587070395.716,-43.945,-397.461,-448.730,-80.078,0.000
1587070395.720,68.359,149.902,165.527,158.203,0.000
1587070395.723,50.293,-118.164,-32.227,45.410,0.000
1587070395.727,-100.586,-547.852,-564.941,-239.258,0.000
1587070395.731,-113.770,-255.371,-380.371,-170.898,0.000
1587070395.735,11.230,253.418,216.309,123.535,0.000
1587070395.739,39.062,99.121,165.039,131.348,0.000
1587070395.743,-79.590,-207.520,-256.836,-153.809,0.000
1587070395.747,-120.117,-283.203,-414.551,-225.098,0.000
1587070395.751,-15.137,32.227,-6.348,47.363,0.000
1587070395.755,31.738,603.516,612.793,154.785,0.000
1587070395.759,-60.547,396.484,341.309,-81.055,0.000
1587070395.762,-111.816,-399.414,-471.680,-210.938,0.000
1587070395.766,-19.043,-489.746,-473.633,11.230,0.000
1587070395.770,51.270,-418.457,-228.516,201.172,0.000
1587070395.774,-31.738,-138.672,-59.082,-12.207,0.000
1587070395.778,-123.047,-166.504,-265.625,-248.535,0.000
1587070395.782,-85.449,-392.090,-445.312,-108.887,0.000
1587070395.786,-0.488,293.945,313.477,131.348,0.000
1587070395.790,-4.395,731.445,700.195,36.621,0.000
1587070395.794,-102.051,114.746,13.672,-236.816,0.000
1587070395.798,-104.492,-512.207,-571.777,-188.965,0.000
1587070395.802,-1.465,45.898,12.695,95.215,0.000
1587070395.805,24.414,786.133,722.656,107.910,0.000
1587070395.809,-67.383,-4.395,-31.250,-160.156,0.000
1587070395.813,-124.512,-818.359,-827.148,-229.004,0.000
1587070395.817,-58.594,6.836,-30.762,13.184,0.000
1587070395.821,16.113,929.199,870.117,152.344,0.000
1587070395.825,-49.805,446.289,391.113,-83.984,0.000
1587070395.829,-118.652,-774.414,-775.391,-243.164,0.000
1587070395.833,-57.129,-403.809,-430.176,-41.504,0.000
1587070395.837,27.832,763.672,710.938,160.645,0.000
1587070395.841,-14.648,500.488,487.793,7.324,0.000
1587070395.845,-112.793,-728.516,-702.148,-232.910,0.000
1587070395.848,-108.887,-440.430,-491.699,-132.812,0.000
1587070395.852,-8.301,673.828,608.887,126.465,0.000
1587070395.856,21.484,446.289,483.887,94.238,0.000
1587070395.860,-75.195,-795.410,-770.020,-161.133,0.000
1587070395.864,-134.766,-677.734,-742.188,-197.266,0.000
1587070395.868,-28.809,390.625,350.098,76.660,0.000
1587070395.872,50.781,605.469,596.191,157.715,0.000
1587070395.876,-67.871,91.797,36.133,-129.883,0.000
1587070395.880,-158.203,-271.973,-413.574,-275.879,0.000
1587070395.884,-43.945,153.320,42.480,-11.230,0.000
1587070395.887,64.453,397.949,407.715,169.922,0.000
1587070395.891,-4.883,93.750,67.383,-44.922,0.000
1587070395.895,-112.793,-187.012,-320.312,-247.070,0.000
1587070395.899,-53.711,-76.172,-192.383,-68.848,0.000
1587070395.903,60.059,62.012,101.562,168.945,0.000
1587070395.907,12.695,119.629,160.156,27.344,0.000
1587070395.911,-116.211,87.891,-36.621,-241.211,0.000
1587070395.915,-89.844,-102.539,-231.934,-141.602,0.000
1587070395.919,39.551,-288.086,-244.141,156.738,0.000
1587070395.923,35.645,229.980,246.582,119.141,0.000
1587070395.927,-98.145,156.738,33.691,-196.777,0.000
1587070395.930,-130.859,-452.637,-549.316,-213.379,0.000
1587070395.934,-12.695,-248.047,-212.402,78.613,0.000
1587070395.938,28.320,541.992,552.734,133.789,0.000
1587070395.942,-71.777,411.133,333.008,-119.629,0.000
1587070395.946,-130.859,-438.477,-495.605,-243.164,0.000
1587070395.950,-12.695,-720.703,-674.805,9.277,0.000
1587070395.954,65.918,159.180,199.219,173.828,0.000
1587070395.958,-28.320,483.887,418.945,-39.062,0.000
1587070395.962,-110.840,-475.586,-548.340,-222.168,0.000
1587070395.966,-58.105,-713.867,-756.348,-59.082,0.000
1587070395.970,23.438,496.094,433.105,136.719,0.000
1587070395.973,5.859,729.492,666.016,33.691,0.000
1587070395.977,-88.867,-429.199,-474.121,-215.820,0.000
1587070395.981,-98.145,-670.410,-722.168,-170.898,0.000
1587070395.985,-9.766,364.746,316.895,99.609,0.000
1587070395.989,24.414,791.504,747.559,115.234,0.000
1587070395.993,-72.754,-29.785,-65.918,-161.133,0.000
1587070395.997,-110.840,-675.293,-712.402,-219.727,0.000
1587070396.001,13.672,-91.797,-148.438,67.383,0.000
1587070396.005,83.008,449.219,417.969,196.777,0.000
1587070396.009,-12.695,-525.879,-496.094,-47.852,0.000
1587070396.012,-112.305,-986.328,-1000.000,-222.656,0.000
1587070396.016,-53.223,-26.367,-168.945,-5.859,0.000
1587070396.020,50.293,638.184,595.215,207.031,0.000
1587070396.024,3.906,222.168,204.102,34.668,0.000
1587070396.028,-121.582,-217.773,-323.730,-189.453,0.000
1587070396.032,-96.680,-101.074,-231.934,-59.570,0.000
1587070396.036,19.531,294.434,232.422,179.688,0.000
1587070396.040,0.488,322.266,303.223,91.309,0.000
1587070396.044,-111.328,-332.031,-377.930,-193.359,0.000
1587070396.048,-114.746,-714.355,-796.387,-166.504,0.000
1587070396.052,-7.324,-147.461,-196.289,107.910,0.000
1587070396.055,20.020,391.602,374.023,118.164,0.000
1587070396.059,-99.609,121.582,40.039,-176.758,0.000
1587070396.063,-142.578,-452.148,-570.312,-257.812,0.000
1587070396.067,-13.184,-430.664,-436.523,35.645,0.000
1587070396.071,48.828,-101.562,20.996,185.059,0.000
1587070396.075,-50.293,242.676,204.102,-58.594,0.000
1587070396.079,-131.348,-234.863,-372.070,-231.934,0.000
1587070396.083,-57.617,-458.496,-488.281,-12.695,0.000
1587070396.087,25.391,412.598,405.762,186.035,0.000
1587070396.091,-16.113,409.180,394.531,26.855,0.000
1587070396.095,-103.516,-462.891,-491.699,-211.914,0.000
1587070396.098,-63.965,-907.715,-919.922,-84.473,0.000
1587070396.102,26.855,-99.609,-113.770,162.109,0.000
1587070396.106,16.113,882.812,810.547,100.586,0.000
1587070396.110,-84.473,204.590,129.883,-166.992,0.000
1587070396.114,-100.586,-488.281,-554.199,-179.688,0.000
1587070396.118,11.230,365.234,326.172,104.980,0.000
1587070396.122,52.246,748.047,770.020,187.500,0.000
1587070396.126,-62.500,15.137,10.742,-76.172,0.000
1587070396.130,-131.836,-299.316,-350.098,-215.332,0.000
1587070396.134,-22.461,177.734,126.465,31.738,0.000
1587070396.137,63.477,475.098,497.559,195.312,0.000
1587070396.141,-12.207,-5.371,49.805,-22.949,0.000
1587070396.145,-102.539,-864.258,-867.676,-221.680,0.000
1587070396.149,-55.664,-369.629,-444.336,-65.918,0.000
1587070396.153,42.480,649.414,590.820,174.805,0.000
1587070396.157,20.020,415.527,420.410,68.848,0.000
1587070396.161,-102.539,-274.414,-314.453,-213.867,0.000
1587070396.165,-99.121,-202.637,-310.547,-147.461,0.000
1587070396.169,13.184,448.242,395.508,128.418,0.000
1587070396.173,33.203,493.164,510.254,119.141,0.000
1587070396.177,-76.660,-88.379,-125.488,-171.875,0.000
1587070396.180,-115.723,-480.469,-550.293,-208.496,0.000
1587070396.184,-8.789,-159.180,-158.203,102.051,0.000
1587070396.188,43.457,308.594,355.957,184.082,0.000
1587070396.192,-57.129,181.152,155.273,-123.535,0.000
1587070396.196,-123.535,-302.734,-395.508,-262.695,0.000
1587070396.200,-31.738,-113.770,-156.738,6.348,0.000
1587070396.204,62.012,-98.633,54.688,210.938,0.000
1587070396.208,-18.066,-73.242,14.160,-8.789,0.000
1587070396.212,-106.934,-42.969,-125.488,-249.512,0.000
1587070396.216,-56.152,-155.762,-185.059,-90.820,0.000
1587070396.220,22.949,264.648,300.293,160.645,0.000
1587070396.223,13.672,442.383,454.102,56.641,0.000
1587070396.227,-93.262,-16.113,-104.980,-217.773,0.000
1587070396.231,-86.426,-690.430,-734.375,-157.227,0.000
1587070396.235,26.367,-630.371,-492.676,132.812,0.000
1587070396.239,34.668,209.961,292.480,130.371,0.000
1587070396.243,-70.312,122.559,58.105,-163.574,0.000
1587070396.247,-99.121,-419.922,-498.047,-211.426,0.000
1587070396.251,-8.301,108.887,70.312,62.500,0.000
1587070396.255,22.949,790.039,774.414,144.043,0.000
1587070396.259,-90.820,328.613,295.410,-129.883,0.000
1587070396.262,-173.340,-534.668,-579.102,-297.363,0.000
1587070396.266,-108.398,-229.492,-261.719,-85.449,0.000
1587070396.270,-22.949,606.445,581.055,119.141,0.000
1587070396.274,-65.430,378.418,354.004,-43.457,0.000
1587070396.278,-170.898,-651.367,-627.930,-281.250,0.000
1587070396.282,-136.719,-738.770,-711.426,-149.414,0.000
1587070396.286,-41.504,437.012,431.641,91.309,0.000
1587070396.290,-53.223,688.477,688.477,34.180,0.000
1587070396.294,-132.324,-632.812,-607.422,-202.637,0.000
1587070396.298,-146.484,-1000.000,-1000.000,-201.660,0.000
1587070396.302,-46.875,229.980,198.242,71.777,0.000
1587070396.305,14.160,711.426,689.453,134.277,0.000
1587070396.309,-74.707,-32.715,-67.383,-147.461,0.000
1587070396.313,-136.230,-320.312,-413.086,-248.047,0.000
1587070396.317,-55.664,300.781,209.473,0.977,0.000
1587070396.321,24.414,703.613,684.570,147.949,0.000
1587070396.325,-56.641,-35.156,-10.742,-66.406,0.000
1587070396.329,-159.668,-642.578,-685.547,-266.113,0.000
1587070396.333,-84.473,-95.703,-185.547,-71.289,0.000
1587070396.337,26.367,348.633,340.820,162.109,0.000
1587070396.341,-24.902,73.242,104.980,19.043,0.000
1587070396.345,-153.809,-145.020,-228.516,-239.746,0.000
1587070396.348,-116.211,35.156,-102.539,-151.855,0.000
1587070396.352,18.555,169.922,182.617,126.465,0.000
1587070396.356,10.742,-164.062,-22.461,102.051,0.000
1587070396.360,-117.676,-153.809,-193.848,-195.801,0.000
1587070396.364,-128.906,-201.172,-348.633,-207.520,0.000
1587070396.368,-0.488,68.359,34.180,86.914,0.000
1587070396.372,50.293,324.219,329.590,156.738,0.000
1587070396.376,-60.059,-53.223,-111.328,-113.770,0.000
1587070396.380,-139.160,-291.504,-411.621,-264.648,0.000
1587070396.384,-26.855,-436.523,-400.391,11.719,0.000
1587070396.387,56.152,181.152,252.930,192.383,0.000
1587070396.391,-30.762,561.035,478.027,-32.715,0.000
1587070396.395,-114.258,-221.680,-345.215,-226.074,0.000
1587070396.399,-65.430,-354.004,-442.871,-74.707,0.000
1587070396.403,23.438,519.043,447.754,157.227,0.000
1587070396.407,-9.766,645.996,553.711,41.016,0.000
1587070396.411,-97.656,-332.031,-420.898,-226.074,0.000
1587070396.415,-76.660,-872.559,-903.809,-132.324,0.000
1587070396.419,12.695,-216.797,-210.938,132.324,0.000
1587070396.423,29.785,458.496,447.266,98.633,0.000
1587070396.427,-71.777,-71.777,-114.258,-168.457,0.000
1587070396.430,-106.445,-901.367,-926.758,-201.172,0.000
1587070396.434,-16.602,-54.199,-103.516,41.992,0.000
1587070396.438,59.570,912.109,853.027,147.461,0.000
1587070396.442,-21.973,201.172,163.086,-95.703,0.000
1587070396.446,-122.070,-477.539,-549.805,-253.418,0.000
1587070396.450,-46.387,-17.090,-103.516,-24.414,0.000
1587070396.454,46.875,555.176,526.367,170.410,0.000
1587070396.458,-2.930,223.633,243.164,-5.371,0.000
1587070396.462,-107.910,-273.438,-320.801,-249.023,0.000
1587070396.466,-69.336,-283.691,-323.730,-107.422,0.000
1587070396.470,47.852,147.949,207.031,154.297,0.000
1587070396.473,52.246,-116.211,49.805,104.980,0.000
1587070396.477,-54.688,-557.617,-490.723,-165.527,0.000
1587070396.481,-79.102,-197.266,-298.828,-168.457,0.000
1587070396.485,11.230,283.203,246.582,118.164,0.000
1587070396.489,34.180,428.711,449.707,150.391,0.000
1587070396.493,-66.406,162.109,96.191,-162.109,0.000
1587070396.497,-111.816,-174.805,-286.621,-253.418,0.000
1587070396.501,-25.879,-23.926,-80.566,33.691,0.000
1587070396.505,48.340,358.887,362.793,182.617,0.000
1587070396.509,-17.578,256.836,235.352,-68.848,0.000
1587070396.512,-106.445,-354.004,-398.438,-253.418,0.000
1587070396.516,-53.223,-547.852,-500.977,-51.758,0.000
1587070396.520,40.527,-406.250,-212.891,171.387,0.000
1587070396.524,-4.395,199.707,243.164,19.043,0.000
1587070396.528,-100.586,-78.613,-155.762,-222.168,0.000
1587070396.532,-71.289,-554.688,-574.707,-117.676,0.000
1587070396.536,27.344,171.875,185.547,135.254,0.000
1587070396.540,36.133,656.738,628.418,100.098,0.000
1587070396.544,-69.336,41.504,-38.574,-169.434,0.000
1587070396.548,-106.445,-691.895,-714.355,-193.359,0.000
1587070396.552,-32.715,-13.184,-9.277,64.453,0.000
1587070396.555,11.230,750.977,731.445,125.000,0.000
1587070396.559,-66.406,-39.551,-24.414,-126.465,0.000
1587070396.563,-117.188,-937.500,-919.434,-218.750,0.000
1587070396.567,-45.898,-483.887,-491.211,20.508,0.000
1587070396.571,5.371,647.461,639.160,147.461,0.000
1587070396.575,-44.922,494.629,471.191,-60.059,0.000
1587070396.579,-106.934,-458.008,-491.699,-221.191,0.000
1587070396.583,-66.406,-180.176,-238.770,-52.246,0.000
1587070396.587,12.695,575.684,556.641,154.785,0.000
1587070396.591,-8.301,236.816,261.719,37.109,0.000
1587070396.595,-108.398,-446.777,-479.492,-218.262,0.000
1587070396.598,-102.051,-288.086,-380.371,-153.320,0.000
1587070396.602,0.977,286.621,243.164,102.051,0.000
1587070396.606,34.180,66.406,120.605,109.863,0.000
1587070396.610,-57.129,-747.559,-718.750,-148.926,0.000
1587070396.614,-108.398,-544.434,-624.023,-199.219,0.000
1587070396.618,-29.297,200.195,132.812,64.453,0.000
1587070396.622,31.738,388.184,410.645,148.438,0.000
1587070396.626,-36.621,92.285,108.398,-107.910,0.000
1587070396.630,-96.191,-23.926,-121.094,-240.723,0.000
1587070396.634,-55.176,72.266,-13.184,-15.137,0.000
1587070396.637,9.766,251.465,280.273,152.832,0.000
1587070396.641,-6.836,275.879,280.762,-2.441,0.000
1587070396.645,-75.195,-169.434,-245.605,-195.312,0.000
1587070396.649,-72.754,-371.094,-420.410,-94.727,0.000
1587070396.653,5.859,-239.258,-171.387,121.582,0.000
1587070396.657,16.602,64.453,100.586,55.664,0.000
1587070396.661,-75.684,209.473,78.613,-196.777,0.000
1587070396.665,-79.590,-215.332,-322.266,-162.598,0.000
1587070396.669,25.391,-363.770,-328.125,121.094,0.000
1587070396.673,40.039,328.125,329.590,125.977,0.000
1587070396.677,-53.223,295.898,183.105,-161.621,0.000
1587070396.680,-82.031,-451.660,-551.758,-209.473,0.000
1587070396.684,-11.230,-719.727,-657.227,61.523,0.000
1587070396.688,22.461,233.887,253.418,156.738,0.000
1587070396.692,-52.246,527.832,437.012,-88.379,0.000
1587070396.696,-117.676,-360.352,-458.496,-236.328,0.000
1587070396.700,-33.691,-913.086,-934.570,3.418,0.000
1587070396.704,27.344,-151.855,-113.281,177.734,0.000
1587070396.708,-34.180,234.863,212.891,-29.785,0.000
1587070396.712,-106.934,-425.781,-493.164,-238.281,0.000
1587070396.716,-72.266,-941.895,-955.078,-75.684,0.000
1587070396.720,-5.371,-34.668,-56.152,120.117,0.000
1587070396.723,-17.090,693.848,666.016,21.973,0.000
1587070396.727,-102.051,-170.898,-195.801,-213.867,0.000
1587070396.731,-111.816,-447.754,-511.230,-186.035,0.000
1587070396.735,-12.207,477.539,406.738,83.496,0.000
1587070396.739,13.672,893.066,838.867,109.863,0.000
1587070396.743,-68.848,-42.480,-88.379,-169.434,0.000
1587070396.747,-112.793,-674.805,-729.492,-243.652,0.000
1587070396.751,-31.738,-122.070,-163.086,41.992,0.000
1587070396.755,37.598,590.332,548.340,154.297,0.000
1587070396.759,-8.789,-195.312,-192.871,-78.125,0.000
1587070396.762,-104.492,-998.535,-1000.000,-259.277,0.000
1587070396.766,-72.266,-359.863,-471.191,-79.102,0.000
1587070396.770,23.926,449.219,384.277,142.090,0.000
1587070396.774,-12.207,405.762,362.305,0.488,0.000
1587070396.778,-116.699,-85.938,-207.031,-261.719,0.000
1587070396.782,-86.914,-136.719,-264.648,-151.855,0.000
1587070396.786,17.578,381.836,333.984,132.812,0.000
1587070396.790,19.531,559.082,541.504,92.773,0.000
1587070396.794,-77.637,-73.242,-133.301,-175.781,0.000
1587070396.798,-94.238,-553.223,-623.535,-193.848,0.000
1587070396.802,-4.395,-160.156,-152.832,78.125,0.000
1587070396.805,28.320,306.641,323.730,132.324,0.000
1587070396.809,-56.152,345.703,240.234,-133.301,0.000
1587070396.813,-108.398,98.145,-64.453,-239.746,0.000
1587070396.817,-55.176,-232.422,-260.254,-10.254,0.000
1587070396.821,12.695,-562.012,-419.434,146.484,0.000
1587070396.825,-11.719,-73.730,-76.172,-6.836,0.000
1587070396.829,-24.902,238.770,83.984,-139.648,0.000
1587070396.833,-8.789,47.852,-27.832,-25.879,0.000
1587070396.837,-64.453,-32.715,-35.156,43.945,0.000
1587070396.841,-85.449,-300.293,-280.762,-57.617,0.000
1587070396.845,-23.438,-272.461,-296.875,-125.488,0.000
1587070396.848,1.953,-429.199,-388.672,-20.996,0.000
1587070396.852,-62.500,-666.992,-549.805,47.852,0.000
1587070396.856,-111.328,-184.570,-167.969,-44.434,0.000
1587070396.860,-54.199,22.461,-38.574,-135.742,0.000
1587070396.864,24.902,67.383,1.953,-65.430,0.000
1587070396.868,-4.395,393.555,332.520,63.965,0.000
1587070396.872,-80.078,290.527,247.559,25.879,0.000
1587070396.876,-56.641,-27.344,-81.543,-110.352,0.000
1587070396.880,5.371,-9.277,-74.219,-98.145,0.000
1587070396.884,-13.184,186.035,145.020,30.762,0.000
1587070396.887,-70.801,-80.566,-65.430,38.574,0.000
1587070396.891,-60.547,-506.348,-468.262,-78.125,0.000
1587070396.895,17.090,-559.570,-491.211,-94.238,0.000
1587070396.899,20.020,246.094,222.656,14.160,0.000
1587070396.903,-61.035,484.863,427.734,66.406,0.000
1587070396.907,-89.844,-228.516,-203.613,-30.762,0.000
1587070396.911,-43.457,-178.223,-191.895,-143.066,0.000
1587070396.915,-24.414,516.602,401.855,-66.406,0.000
1587070396.919,-67.383,454.102,409.180,37.109,0.000
1587070396.923,-98.145,-270.996,-209.961,-19.043,0.000
1587070396.927,-55.176,-222.656,-235.840,-123.535,0.000
1587070396.930,6.836,424.805,309.570,-81.543,0.000
1587070396.934,-4.883,178.223,181.152,52.734,0.000
1587070396.938,-57.617,-763.672,-653.320,43.457,0.000
1587070396.942,-67.871,-668.945,-674.805,-124.512,0.000
1587070396.946,-11.230,244.629,127.930,-148.438,0.000
1587070396.950,-10.254,457.031,387.207,14.648,0.000
1587070396.954,-77.637,-53.711,1.953,57.617,0.000
1587070396.958,-80.078,-199.707,-190.430,-79.102,0.000
1587070396.962,-6.836,250.000,133.301,-136.719,0.000
1587070396.966,32.715,388.184,308.594,16.602,0.000
1587070396.970,-36.621,21.484,52.734,92.285,0.000
1587070396.973,-82.520,-147.949,-147.949,-32.227,0.000
1587070396.977,-27.832,76.660,-38.574,-135.742,0.000
1587070396.981,25.879,52.734,-1.465,-45.410,0.000
1587070396.985,-11.719,-622.070,-463.379,90.820,0.000
1587070396.989,-77.637,-283.691,-216.797,24.902,0.000
1587070396.993,-51.270,293.945,211.426,-111.816,0.000
1587070396.997,3.418,104.492,74.219,-82.520,0.000
1587070397.001,-33.691,10.254,51.758,27.832,0.000
1587070397.005,-64.941,188.965,204.590,47.852,0.000
1587070397.009,-34.668,196.777,148.438,-62.012,0.000
1587070397.012,-10.254,39.551,-10.742,-124.023,0.000
1587070397.016,-30.762,75.684,61.523,-13.672,0.000
1587070397.020,-58.594,236.816,231.445,80.078,0.000
1587070397.024,-24.414,248.535,216.309,9.277,0.000
1587070397.028,5.371,-286.621,-292.480,-119.629,0.000
1587070397.032,-33.691,-507.324,-499.512,-99.609,0.000
1587070397.036,-62.988,91.797,69.336,18.555,0.000
1587070397.040,-38.086,227.051,205.566,18.066,0.000
1587070397.044,-6.348,-463.379,-418.945,-118.164,0.000
1587070397.048,-37.109,-355.469,-392.578,-140.137,0.000
1587070397.052,-46.875,198.242,111.328,24.902,0.000
1587070397.055,5.859,67.871,82.520,83.984,0.000
1587070397.059,-7.812,64.941,49.805,-78.125,0.000
1587070397.063,-56.641,139.648,23.438,-169.922,0.000
1587070397.067,-67.871,30.762,-50.781,-19.043,0.000
1587070397.071,-34.180,-6.836,-9.277,94.238,0.000
1587070397.075,-0.488,-282.715,-272.949,-24.414,0.000
1587070397.079,-19.531,-368.652,-427.734,-153.320,0.000
1587070397.083,-48.828,-21.484,-142.090,-64.941,0.000
1587070397.087,-44.434,-21.484,-11.719,78.613,0.000
1587070397.091,-9.766,-460.449,-309.570,24.902,0.000
1587070397.095,-31.738,58.105,14.648,-161.621,0.000
1587070397.098,-78.613,300.293,153.809,-137.207,0.000
1587070397.102,-61.035,-32.227,-40.527,78.125,0.000
1587070397.106,-10.742,223.145,228.516,88.867,0.000
1587070397.110,-26.855,327.148,229.980,-131.836,0.000
1587070397.114,-80.078,-252.930,-338.379,-186.523,0.000
1587070397.118,-58.594,-406.250,-384.766,13.672,0.000
1587070397.122,0.488,-54.199,15.625,97.656,0.000
1587070397.126,-24.902,112.305,88.867,-88.379,0.000
1587070397.130,-72.754,-6.348,-104.004,-213.379,0.000
1587070397.134,-50.781,-435.547,-390.137,-29.785,0.000
1587070397.137,-28.809,134.766,181.641,110.352,0.000
1587070397.141,-45.410,583.496,501.465,-41.504,0.000
1587070397.145,-71.777,-30.273,-143.555,-215.332,0.000
1587070397.149,-41.016,-851.562,-878.906,-65.918,0.000
1587070397.153,-1.465,-145.020,-153.809,142.090,0.000
1587070397.157,-4.883,814.941,761.719,58.105,0.000
1587070397.161,-67.871,142.090,75.684,-180.664,0.000
1587070397.165,-94.238,-606.445,-611.816,-158.203,0.000
1587070397.169,-27.344,-308.105,-255.859,78.125,0.000
1587070397.173,24.414,185.547,233.887,114.258,0.000
1587070397.177,-27.344,-145.508,-155.762,-103.516,0.000
1587070397.180,-67.871,-817.871,-852.539,-156.738,0.000
1587070397.184,-56.152,-21.484,-90.332,32.715,0.000
1587070397.188,-10.254,668.457,619.141,141.113,0.000
1587070397.192,-10.742,104.004,98.145,-48.340,0.000
1587070397.196,-72.754,-353.516,-411.621,-231.445,0.000
1587070397.200,-59.082,71.777,-10.742,-74.219,0.000
1587070397.204,11.230,593.750,565.430,125.488,0.000
1587070397.208,2.930,271.973,272.949,1.953,0.000
1587070397.212,-69.336,-224.121,-296.387,-229.980,0.000
1587070397.216,-73.730,-447.754,-521.973,-127.441,0.000
1587070397.220,1.465,-241.211,-215.820,108.887,0.000
1587070397.223,20.996,-95.215,-21.484,74.219,0.000
1587070397.227,-71.777,-189.941,-214.844,-173.340,0.000
1587070397.231,-99.121,-380.371,-441.406,-181.152,0.000
1587070397.235,-19.531,-154.785,-133.301,71.777,0.000
1587070397.239,30.273,-306.152,-146.484,142.578,0.000
1587070397.243,-42.480,-412.598,-365.723,-117.676,0.000
1587070397.247,-99.609,-266.113,-388.184,-236.328,0.000
1587070397.251,-42.969,-163.086,-189.941,8.789,0.000
1587070397.255,9.277,352.539,387.695,151.855,0.000
1587070397.259,-37.109,432.129,398.438,-53.711,0.000
1587070397.262,-91.797,-159.668,-234.863,-213.379,0.000
1587070397.266,-61.035,-447.266,-425.293,-46.875,0.000
1587070397.270,15.137,-381.348,-196.289,136.230,0.000
1587070397.274,-2.930,316.895,365.723,-4.883,0.000
1587070397.278,-78.125,136.719,31.738,-249.023,0.000
1587070397.282,-73.730,-406.738,-468.750,-164.062,0.000
1587070397.286,-8.301,81.543,84.961,91.309,0.000
1587070397.290,28.809,494.629,489.258,85.938,0.000
1587070397.294,-35.645,68.359,-16.113,-166.504,0.000
1587070397.298,-81.543,-489.258,-570.312,-192.383,0.000
1587070397.302,-23.438,99.121,54.199,65.430,0.000
1587070397.305,26.367,737.305,712.402,148.926,0.000
1587070397.309,-36.621,55.176,50.293,-89.844,0.000
1587070397.313,-76.660,-824.219,-832.520,-189.453,0.000
1587070397.317,-26.855,-411.133,-444.336,31.250,0.000
1587070397.321,12.695,623.535,584.961,160.156,0.000
1587070397.325,-34.668,468.262,437.500,-31.250,0.000
1587070397.329,-96.680,-447.754,-486.816,-232.422,0.000
1587070397.333,-73.242,-287.109,-348.145,-67.871,0.000
1587070397.337,0.000,590.820,562.500,157.227,0.000
1587070397.341,8.789,635.742,626.465,39.551,0.000
1587070397.345,-80.078,-130.371,-159.180,-204.590,0.000
1587070397.348,-93.750,-416.016,-453.613,-134.766,0.000
1587070397.352,6.348,201.660,173.340,113.281,0.000
1587070397.356,47.363,259.277,304.199,125.488,0.000
1587070397.360,-42.969,-770.996,-747.070,-114.746,0.000
1587070397.364,-116.699,-586.914,-687.012,-215.332,0.000
1587070397.368,-28.320,317.383,237.793,32.715,0.000
1587070397.372,37.109,495.117,486.328,168.945,0.000
1587070397.376,-43.457,212.891,186.523,-83.496,0.000
1587070397.380,-107.422,-153.320,-263.672,-256.836,0.000
1587070397.384,-39.551,0.977,-83.984,-27.344,0.000
1587070397.387,38.086,240.723,292.480,161.133,0.000
1587070397.391,-15.625,221.680,255.371,-26.367,0.000
1587070397.395,-97.656,-75.684,-169.922,-252.441,0.000
1587070397.399,-74.707,-176.270,-264.648,-117.188,0.000
1587070397.403,7.324,-42.480,36.133,133.301,0.000
1587070397.407,3.906,0.000,110.840,57.617,0.000
1587070397.411,-97.168,-191.406,-223.145,-225.586,0.000
1587070397.415,-104.492,-407.227,-473.633,-184.082,0.000
1587070397.419,5.371,-187.012,-113.281,111.328,0.000
1587070397.423,21.484,468.750,525.879,115.723,0.000
1587070397.427,-81.055,469.238,395.508,-161.133,0.000
1587070397.430,-109.863,-246.582,-312.988,-208.496,0.000
1587070397.434,1.465,-545.410,-463.379,76.172,0.000
1587070397.438,44.922,373.535,415.039,154.785,0.000
1587070397.442,-45.410,513.672,449.707,-101.074,0.000
1587070397.446,-107.910,-354.004,-435.547,-244.629,0.000
1587070397.450,-36.133,-837.891,-857.910,-19.043,0.000
1587070397.454,28.320,64.453,76.660,164.551,0.000
1587070397.458,-18.555,684.570,620.605,-17.578,0.000
1587070397.462,-93.262,-313.477,-378.906,-244.141,0.000
1587070397.466,-73.242,-836.914,-858.398,-107.422,0.000
1587070397.470,-3.418,330.078,287.109,134.277,0.000
1587070397.473,12.695,815.430,752.441,69.336,0.000
1587070397.477,-65.918,-155.273,-228.516,-197.754,0.000
1587070397.481,-100.586,-373.535,-463.379,-195.801,0.000
1587070397.485,-26.367,354.004,290.039,71.289,0.000
1587070397.489,13.672,452.637,447.754,129.883,0.000
1587070397.493,-52.734,-231.934,-256.836,-126.465,0.000
1587070397.497,-111.328,-760.742,-797.363,-229.492,0.000
1587070397.501,-55.664,-231.445,-252.441,-0.977,0.000
1587070397.505,18.555,495.605,485.840,145.508,0.000
1587070397.509,-15.137,-72.754,-26.367,-48.340,0.000
1587070397.512,-106.445,-513.184,-575.684,-248.047,0.000
1587070397.516,-80.566,-41.016,-175.293,-81.543,0.000
1587070397.520,14.160,235.352,215.332,159.180,0.000
1587070397.524,8.301,-84.473,-0.977,40.527,0.000
1587070397.528,-89.844,-283.203,-323.730,-230.469,0.000
1587070397.532,-95.215,-100.098,-243.652,-152.344,0.000
1587070397.536,16.113,268.066,248.047,140.625,0.000
1587070397.540,49.805,-270.020,-82.031,140.137,0.000
1587070397.544,-67.383,-637.207,-558.105,-166.504,0.000
1587070397.548,-113.281,-436.035,-509.766,-206.543,0.000
1587070397.552,-13.672,-0.977,11.230,91.309,0.000
1587070397.555,41.504,-123.047,60.059,188.965,0.000
1587070397.559,-53.223,-75.684,-31.250,-103.027,0.000
1587070397.563,-102.539,-134.277,-241.699,-252.930,0.000
1587070397.567,-24.902,-167.480,-179.688,-0.977,0.000
1587070397.571,23.438,445.801,499.023,168.945,0.000
1587070397.575,-40.039,525.879,502.930,-31.738,0.000
1587070397.579,-113.770,-129.883,-210.449,-253.418,0.000
1587070397.583,-67.871,-323.730,-326.172,-81.543,0.000
1587070397.587,16.113,308.594,356.934,152.832,0.000
1587070397.591,-5.859,337.402,368.652,29.297,0.000
1587070397.595,-92.285,-554.688,-550.781,-222.656,0.000
1587070397.598,-98.633,-850.098,-834.473,-159.180,0.000
1587070397.602,-9.766,146.484,165.527,110.352,0.000
1587070397.606,20.020,720.703,693.848,109.863,0.000
1587070397.610,-62.500,5.859,-46.387,-170.410,0.000
1587070397.614,-107.910,-788.574,-811.523,-216.309,0.000
1587070397.618,-42.480,-140.137,-148.926,33.691,0.000
1587070397.622,22.461,815.918,800.293,137.695,0.000
1587070397.626,-37.109,312.012,289.551,-77.148,0.000
1587070397.630,-101.074,-819.336,-832.520,-213.867,0.000
1587070397.634,-49.805,-258.789,-289.062,1.465,0.000
1587070397.637,27.344,495.605,561.035,189.453,0.000
1587070397.641,-5.371,-9.277,70.312,11.230,0.000
1587070397.645,-73.730,-859.863,-864.746,-208.496,0.000
1587070397.649,-62.988,-308.105,-361.328,-100.098,0.000
1587070397.653,8.301,740.234,690.918,120.605,0.000
1587070397.657,10.742,569.336,581.055,63.477,0.000
1587070397.661,-85.449,-183.594,-207.031,-201.172,0.000
1587070397.665,-111.328,-256.836,-359.863,-206.543,0.000
1587070397.669,-20.020,337.402,283.691,75.195,0.000
1587070397.673,25.391,391.113,440.430,122.559,0.000
1587070397.677,-51.758,22.949,20.508,-161.621,0.000
1587070397.680,-108.887,-157.715,-255.371,-254.883,0.000
1587070397.684,-25.879,68.848,61.523,26.367,0.000
1587070397.688,57.129,27.344,188.965,188.965,0.000
1587070397.692,-36.133,-187.012,-78.125,-70.801,0.000
1587070397.696,-109.863,-204.590,-267.090,-262.695,0.000
1587070397.700,-24.902,-330.566,-347.656,-32.715,0.000
1587070397.704,33.203,131.836,194.336,179.199,0.000
1587070397.708,-22.461,469.238,454.590,11.719,0.000
1587070397.712,-98.633,-96.191,-212.402,-247.070,0.000
1587070397.716,-68.359,-483.398,-550.781,-122.559,0.000
1587070397.720,4.883,86.426,123.047,126.953,0.000
1587070397.723,-3.906,690.430,693.848,75.195,0.000
1587070397.727,-86.914,298.340,216.309,-194.824,0.000
1587070397.731,-94.727,-530.762,-546.387,-204.102,0.000
1587070397.735,13.672,-600.586,-453.613,114.746,0.000
1587070397.739,49.316,469.238,521.973,179.199,0.000
1587070397.743,-25.879,400.391,324.707,-117.188,0.000
1587070397.747,-56.641,-511.230,-564.941,-220.703,0.000
1587070397.751,2.441,-261.719,-282.715,40.527,0.000
1587070397.755,40.039,425.293,428.223,158.691,0.000
1587070397.759,-20.020,52.246,65.918,-61.035,0.000
1587070397.762,-99.121,-672.363,-696.289,-235.352,0.000
1587070397.766,-62.500,-310.547,-363.281,-72.266,0.000
1587070397.770,18.555,630.371,587.891,143.555,0.000
1587070397.774,10.742,613.281,587.402,41.992,0.000
1587070397.778,-62.500,-543.457,-537.109,-197.754,0.000
1587070397.782,-70.801,-799.805,-805.664,-128.906,0.000
1587070397.786,4.395,348.145,311.523,136.230,0.000
1587070397.790,36.133,689.941,680.176,117.188,0.000
1587070397.794,-16.602,-552.246,-529.297,-138.672,0.000
1587070397.798,-57.617,-808.594,-878.418,-175.293,0.000
1587070397.802,-19.043,282.227,194.824,64.453,0.000
1587070397.805,21.484,636.719,647.461,155.762,0.000
1587070397.809,-54.199,76.660,82.031,-109.375,0.000
1587070397.813,-122.070,-425.293,-491.211,-256.348,0.000
1587070397.817,-38.086,-320.801,-348.633,4.883,0.000
1587070397.821,39.551,288.574,298.828,191.406,0.000
1587070397.825,-4.883,-58.105,-20.020,1.953,0.000
1587070397.829,-91.309,-698.730,-689.941,-219.238,0.000
1587070397.833,-83.496,-142.578,-207.031,-101.074,0.000
1587070397.837,19.043,375.488,410.645,152.832,0.000
1587070397.841,33.691,-375.977,-165.527,98.633,0.000
1587070397.845,-78.125,-449.707,-421.875,-196.777,0.000
1587070397.848,-92.285,-62.988,-170.410,-166.504,0.000
1587070397.852,-0.977,262.695,292.969,112.305,0.000
1587070397.856,9.766,707.031,748.535,98.145,0.000
1587070397.860,-75.195,357.422,275.879,-190.918,0.000
1587070397.864,-106.934,-201.172,-321.777,-246.582,0.000
1587070397.868,-27.344,-125.488,-114.746,24.902,0.000
1587070397.872,31.250,178.223,257.812,91.309,0.000
1587070397.876,-21.973,12.207,22.461,-122.070,0.000
1587070397.880,-108.887,-562.988,-578.125,-265.137,0.000
1587070397.884,-60.547,-597.168,-508.301,-57.617,0.000
1587070397.887,11.719,292.969,368.164,134.766,0.000
1587070397.891,-39.551,714.355,672.363,-49.316,0.000
1587070397.895,-110.352,-76.660,-138.184,-246.582,0.000
1587070397.899,-67.383,-769.531,-745.605,-92.285,0.000
1587070397.903,7.324,240.723,268.555,116.211,0.000
1587070397.907,12.695,764.648,753.418,37.109,0.000
1587070397.911,-65.430,-368.164,-386.719,-222.656,0.000
1587070397.915,-88.379,-613.770,-669.434,-213.867,0.000
1587070397.919,4.883,8.301,15.137,71.289,0.000
1587070397.923,30.273,399.414,429.688,111.328,0.000
1587070397.927,-58.105,23.926,-23.438,-148.438,0.000
1587070397.930,-85.449,-898.438,-920.898,-216.309,0.000
1587070397.934,-28.809,-320.312,-334.473,13.672,0.000
1587070397.938,27.344,730.957,711.914,142.090,0.000
1587070397.942,-29.297,359.375,352.539,-61.035,0.000
1587070397.946,-118.652,-319.824,-374.512,-267.578,0.000
1587070397.950,-60.059,-43.457,-120.605,-75.195,0.000
1587070397.954,21.484,643.066,630.859,153.320,0.000
1587070397.958,-1.953,383.789,419.922,15.625,0.000
1587070397.962,-82.520,-255.371,-311.523,-237.305,0.000
1587070397.966,-73.730,-560.547,-613.281,-133.789,0.000
1587070397.970,29.297,-85.938,-47.363,146.973,0.000
1587070397.973,51.758,-45.410,70.312,117.188,0.000
1587070397.977,-62.500,-633.301,-551.758,-173.340,0.000
1587070397.981,-120.117,-269.043,-351.562,-212.402,0.000
1587070397.985,-21.973,364.746,315.430,75.684,0.000
1587070397.989,44.434,4.883,159.180,196.289,0.000
1587070397.993,-43.457,-258.301,-201.172,-86.426,0.000
1587070397.997,-90.820,-180.176,-323.730,-258.789,0.000
1587070398.001,-16.602,-100.586,-156.738,-17.090,0.000
1587070398.005,36.621,321.777,385.254,139.648,0.000
1587070398.009,-14.160,471.191,451.660,-66.895,0.000
1587070398.012,-95.215,-288.086,-372.070,-242.188,0.000
1587070398.016,-53.223,-598.145,-612.793,-53.711,0.000
1587070398.020,20.508,139.648,169.922,149.902,0.000
1587070398.024,-7.324,647.461,621.582,12.207,0.000
1587070398.028,-96.680,211.426,92.773,-241.211,0.000
1587070398.032,-78.125,-477.051,-541.016,-138.672,0.000
1587070398.036,17.578,-639.648,-478.516,155.273,0.000
1587070398.040,10.742,320.801,366.211,99.121,0.000
1587070398.044,-70.312,237.305,122.070,-180.176,0.000
1587070398.048,-104.980,-674.316,-725.098,-208.008,0.000
1587070398.052,-20.020,-146.484,-163.574,53.223,0.000
1587070398.055,35.645,739.258,683.105,152.344,0.000
1587070398.059,-44.434,188.965,160.156,-99.121,0.000
1587070398.063,-104.004,-868.652,-878.418,-247.070,0.000
1587070398.067,-66.895,-456.055,-494.629,-26.367,0.000
1587070398.071,9.277,704.590,668.945,163.574,0.000
1587070398.075,-8.789,484.863,443.359,2.930,0.000
1587070398.079,-91.797,-493.652,-541.504,-235.352,0.000
1587070398.083,-82.520,-277.832,-350.586,-116.699,0.000
1587070398.087,4.883,514.160,466.797,139.160,0.000
1587070398.091,10.254,550.781,529.297,47.363,0.000
1587070398.095,-87.891,-166.504,-210.449,-230.469,0.000
1587070398.098,-89.844,-222.656,-317.383,-173.340,0.000
1587070398.102,12.207,404.785,333.008,104.492,0.000
1587070398.106,55.176,332.031,357.422,121.094,0.000
1587070398.110,-39.062,-783.691,-724.121,-133.301,0.000
1587070398.114,-106.934,-779.785,-846.680,-229.492,0.000
1587070398.118,-22.461,307.129,196.289,23.926,0.000
1587070398.122,48.340,499.512,512.207,166.504,0.000
1587070398.126,-24.414,130.859,120.605,-78.613,0.000
1587070398.130,-106.934,-124.023,-255.371,-255.371,0.000
1587070398.134,-45.898,-40.039,-144.531,-35.645,0.000
1587070398.137,42.480,283.203,293.945,182.617,0.000
1587070398.141,-6.348,300.781,291.504,7.812,0.000
1587070398.145,-95.703,-176.758,-283.203,-250.488,0.000
1587070398.149,-63.477,-303.711,-405.273,-108.887,0.000
1587070398.153,38.574,-107.910,-41.992,171.387,0.000
1587070398.157,38.086,137.207,213.379,103.516,0.000
1587070398.161,-68.848,-20.020,-99.121,-193.359,0.000
1587070398.165,-83.496,-482.910,-556.641,-176.270,0.000
1587070398.169,9.766,-518.066,-396.484,126.953,0.000
1587070398.173,23.438,218.750,311.523,148.926,0.000
1587070398.177,-72.754,322.754,224.609,-134.277,0.000
1587070398.180,-100.586,-473.145,-591.309,-237.305,0.000
1587070398.184,-13.184,-359.863,-395.996,12.207,0.000
1587070398.188,38.086,520.508,493.164,153.809,0.000
1587070398.192,-36.621,405.762,325.195,-78.613,0.000
1587070398.196,-116.211,-407.715,-505.859,-277.344,0.000
1587070398.200,-51.270,-724.609,-735.352,-70.312,0.000
1587070398.204,65.430,62.988,81.055,186.523,0.000
1587070398.208,18.066,541.016,487.793,41.992,0.000
1587070398.212,-97.656,-403.809,-465.820,-244.141,0.000
1587070398.216,-84.961,-724.609,-777.344,-138.672,0.000
1587070398.220,-2.441,299.316,252.930,131.836,0.000
1587070398.223,9.277,530.273,527.344,86.426,0.000
1587070398.227,-85.449,-462.891,-461.426,-192.871,0.000
1587070398.231,-118.652,-801.270,-847.168,-208.984,0.000
1587070398.235,-26.367,288.574,234.375,74.707,0.000
1587070398.239,23.438,918.457,884.766,163.086,0.000
1587070398.243,-49.316,-77.148,-55.664,-98.633,0.000
1587070398.247,-123.047,-962.891,-937.988,-245.605,0.000
1587070398.251,-64.941,-168.457,-195.801,-3.906,0.000
1587070398.255,17.578,856.445,842.285,166.016,0.000
1587070398.259,-32.227,38.086,106.934,-20.020,0.000
1587070398.262,-114.258,-848.633,-878.418,-221.680,0.000
1587070398.266,-76.660,-84.473,-217.773,-69.336,0.000
1587070398.270,32.227,513.184,477.051,183.594,0.000
1587070398.274,18.066,360.840,367.676,86.426,0.000
1587070398.278,-108.398,-10.742,-90.820,-203.125,0.000
1587070398.282,-100.586,-286.133,-355.469,-148.438,0.000
1587070398.286,10.254,79.590,85.938,121.094,0.000
1587070398.290,35.156,528.809,540.039,106.934,0.000
1587070398.294,-74.707,-124.512,-140.137,-181.152,0.000
1587070398.298,-134.766,-577.148,-627.930,-246.094,0.000
1587070398.302,-34.180,-65.430,-83.984,58.105,0.000
1587070398.305,35.156,351.074,396.973,168.945,0.000
1587070398.309,-42.480,211.914,162.109,-95.703,0.000
1587070398.313,-116.699,-183.594,-332.031,-247.070,0.000
1587070398.317,-37.598,-338.379,-344.727,-2.930,0.000
1587070398.321,49.805,-240.234,-93.262,204.102,0.000
1587070398.325,-11.719,348.633,325.684,2.441,0.000
1587070398.329,-90.332,-19.531,-138.184,-218.262,0.000
1587070398.333,-53.223,-429.688,-468.750,-59.570,0.000
1587070398.337,30.273,244.141,238.281,175.781,0.000
1587070398.341,14.160,356.445,369.141,94.238,0.000
1587070398.345,-81.543,-317.871,-316.406,-176.270,0.000
1587070398.348,-90.332,-854.492,-865.234,-142.090,0.000
1587070398.352,-4.883,-95.215,-97.168,133.301,0.000
1587070398.356,18.066,788.574,759.277,139.160,0.000
1587070398.360,-50.781,149.414,69.336,-134.766,0.000
1587070398.364,-63.477,-811.035,-853.027,-203.125,0.000
1587070398.368,-25.879,-122.559,-182.617,34.668,0.000
1587070398.372,21.484,810.059,734.375,155.273,0.000
1587070398.376,-39.062,308.105,261.719,-74.707,0.000
1587070398.380,-120.605,-436.523,-504.883,-262.695,0.000
1587070398.384,-61.035,-42.480,-131.348,-55.664,0.000
1587070398.387,25.879,517.090,521.484,185.059,0.000
1587070398.391,8.301,188.477,229.980,55.664,0.000
1587070398.395,-71.289,-799.316,-797.852,-190.430,0.000
1587070398.399,-61.035,-603.516,-638.184,-104.492,0.000
1587070398.403,4.883,437.012,396.484,127.441,0.000
1587070398.407,3.906,636.230,632.324,70.312,0.000
1587070398.411,-93.262,21.484,-35.645,-214.355,0.000
1587070398.415,-103.516,-241.211,-364.258,-210.938,0.000
1587070398.419,11.230,334.961,278.809,98.145,0.000
1587070398.423,41.504,515.137,553.711,165.039,0.000
1587070398.427,-62.988,93.750,76.172,-131.836,0.000
1587070398.430,-115.234,-209.473,-305.664,-244.629,0.000
1587070398.434,-25.879,-73.242,-99.609,23.438,0.000
1587070398.438,51.270,-75.684,76.172,191.895,0.000
1587070398.442,-18.555,-600.586,-401.855,-33.203,0.000
1587070398.446,-109.863,-338.379,-380.371,-247.070,0.000
1587070398.450,-35.156,41.016,-54.688,-40.527,0.000
1587070398.454,49.805,290.039,309.570,168.457,0.000
1587070398.458,-0.488,300.293,320.312,8.789,0.000
1587070398.462,-105.957,-117.188,-202.637,-264.160,0.000
1587070398.466,-88.379,-218.750,-312.500,-174.805,0.000
1587070398.470,19.531,246.094,250.000,124.512,0.000
1587070398.473,39.551,652.344,651.367,105.957,0.000
1587070398.477,-53.223,105.957,24.902,-181.152,0.000
1587070398.481,-91.309,-722.168,-771.973,-214.355,0.000
1587070398.485,-8.789,-835.449,-750.488,76.172,0.000
1587070398.489,26.855,361.816,388.672,146.484,0.000
1587070398.493,-45.410,447.266,366.211,-130.371,0.000
1587070398.497,-97.656,-469.238,-551.270,-261.719,0.000
1587070398.501,-50.293,-65.430,-120.117,-15.625,0.000
1587070398.505,28.809,796.387,757.812,165.527,0.000
1587070398.509,-17.090,599.121,544.922,-26.367,0.000
1587070398.512,-104.980,-417.480,-465.332,-239.258,0.000
1587070398.516,-50.293,-575.195,-580.078,-80.078,0.000
1587070398.520,39.551,330.078,337.402,185.059,0.000
1587070398.524,6.348,482.422,477.539,66.895,0.000
1587070398.528,-86.914,-607.422,-582.520,-228.516,0.000
1587070398.532,-95.215,-873.535,-856.445,-174.805,0.000
1587070398.536,-9.766,301.270,276.367,97.168,0.000
1587070398.540,27.344,691.406,675.781,103.027,0.000
1587070398.544,-52.246,-470.215,-435.059,-164.551,0.000
1587070398.548,-111.816,-716.797,-749.023,-231.934,0.000
1587070398.552,-31.250,239.258,181.641,39.062,0.000
1587070398.555,33.203,709.473,711.426,159.180,0.000
1587070398.559,-49.316,138.672,132.812,-97.656,0.000
1587070398.563,-128.906,-347.168,-421.875,-253.418,0.000
1587070398.567,-55.664,117.188,43.457,-14.160,0.000
1587070398.571,35.156,474.609,487.305,154.785,0.000
1587070398.575,-0.488,85.449,158.691,-31.738,0.000
1587070398.579,-93.262,-605.469,-585.449,-249.512,0.000
1587070398.583,-79.102,-422.363,-474.609,-120.117,0.000
1587070398.587,21.973,211.426,228.516,138.184,0.000
1587070398.591,15.137,-443.848,-261.719,88.867,0.000
1587070398.595,-100.586,-481.934,-480.469,-203.613,0.000
1587070398.598,-110.352,-160.645,-291.504,-202.637,0.000
1587070398.602,2.441,-2.441,-14.648,96.191,0.000
1587070398.606,34.180,263.184,292.969,131.348,0.000
1587070398.610,-64.941,20.508,-44.434,-158.691,0.000
1587070398.614,-109.375,-485.840,-603.516,-239.746,0.000
1587070398.618,-22.461,-289.062,-282.715,38.574,0.000
1587070398.622,39.551,205.566,269.531,172.363,0.000
1587070398.626,-41.504,156.250,142.578,-87.402,0.000
1587070398.630,-111.328,-276.367,-358.398,-260.742,0.000
1587070398.634,-38.574,-799.316,-776.367,-24.902,0.000
1587070398.637,38.086,13.184,81.543,170.410,0.000
1587070398.641,-2.441,778.320,711.914,-4.883,0.000
1587070398.645,-95.703,-94.238,-197.266,-249.512,0.000
1587070398.649,-59.082,-864.258,-891.113,-110.840,0.000
1587070398.653,20.996,106.445,91.797,158.691,0.000
1587070398.657,3.418,887.207,834.961,104.004,0.000
1587070398.661,-86.914,-11.230,-79.102,-196.777,0.000
1587070398.665,-98.145,-727.539,-789.551,-205.078,0.000
1587070398.669,4.883,-194.824,-196.777,92.285,0.000
1587070398.673,30.273,375.977,427.734,142.578,0.000
1587070398.677,-59.570,-145.508,-151.367,-129.395,0.000
1587070398.680,-109.375,-794.922,-859.863,-236.816,0.000
1587070398.684,-32.715,132.812,69.336,32.715,0.000
1587070398.688,51.758,820.801,812.012,194.336,0.000
1587070398.692,-13.184,-103.027,-81.543,-34.180,0.000
1587070398.696,-115.234,-937.012,-953.613,-251.465,0.000
1587070398.700,-70.312,-143.555,-238.281,-78.613,0.000
1587070398.704,20.020,811.523,772.461,192.871,0.000
1587070398.708,0.977,469.727,510.254,67.871,0.000
1587070398.712,-100.098,-152.344,-198.242,-251.465,0.000
1587070398.716,-87.402,-413.086,-465.820,-173.340,0.000
1587070398.720,23.438,89.844,124.023,124.023,0.000
1587070398.723,47.363,106.445,233.398,116.211,0.000
1587070398.727,-62.012,-614.746,-531.250,-179.199,0.000
1587070398.731,-107.910,-384.766,-474.121,-242.676,0.000
1587070398.735,-20.020,274.902,213.379,54.688,0.000
1587070398.739,50.293,588.379,625.977,166.016,0.000
1587070398.743,-45.898,385.742,354.492,-121.094,0.000
1587070398.747,-130.371,-178.711,-290.039,-280.762,0.000
1587070398.751,-32.227,-199.219,-226.562,-7.324,0.000
1587070398.755,53.711,417.480,457.520,192.383,0.000
1587070398.759,-14.648,482.422,449.707,-19.531,0.000
1587070398.762,-109.375,-405.273,-440.430,-243.164,0.000
1587070398.766,-68.848,-713.867,-695.312,-86.426,0.000
1587070398.770,19.531,105.957,123.535,159.180,0.000
1587070398.774,5.371,480.469,467.285,58.594,0.000
1587070398.778,-85.449,-13.672,-83.496,-225.098,0.000
1587070398.782,-93.262,-478.516,-509.277,-166.992,0.000
1587070398.786,-8.301,-63.965,12.207,113.770,0.000
1587070398.790,29.785,675.781,707.520,119.141,0.000
1587070398.794,-68.848,291.504,235.352,-169.922,0.000
1587070398.798,-116.699,-708.008,-748.535,-228.516,0.000
1587070398.802,-35.156,-442.871,-452.637,40.527,0.000
1587070398.805,20.508,582.031,592.773,153.809,0.000
1587070398.809,-47.363,151.855,173.828,-97.168,0.000
1587070398.813,-114.746,-895.996,-888.184,-268.066,0.000
1587070398.817,-46.875,-699.707,-695.801,-29.297,0.000
1587070398.821,27.832,693.848,679.199,156.738,0.000
1587070398.825,-16.602,681.152,668.457,-15.625,0.000
1587070398.829,-95.215,-645.996,-637.695,-241.211,0.000
1587070398.833,-80.566,-416.504,-470.215,-122.559,0.000
1587070398.837,6.836,718.262,663.086,135.742,0.000
1587070398.841,9.766,814.941,818.359,63.965,0.000
1587070398.845,-87.402,-92.285,-110.352,-209.473,0.000
1587070398.848,-89.844,-329.102,-428.223,-185.059,0.000
1587070398.852,19.043,456.055,382.324,91.309,0.000
1587070398.856,51.758,412.598,473.145,145.996,0.000
1587070398.860,-42.969,-709.961,-654.785,-124.023,0.000
1587070398.864,-108.887,-691.895,-744.141,-239.746,0.000
1587070398.868,-21.484,47.363,46.387,26.855,0.000
1587070398.872,46.387,529.297,561.035,179.688,0.000
1587070398.876,-35.645,315.430,294.922,-61.523,0.000
1587070398.880,-124.023,-243.652,-342.773,-265.625,0.000
1587070398.884,-38.574,-142.090,-228.027,-22.949,0.000
1587070398.887,76.172,363.770,364.258,238.770,0.000
1587070398.891,0.000,377.441,376.465,38.086,0.000
1587070398.895,-117.188,-87.891,-181.152,-255.371,0.000
1587070398.899,-88.867,-217.773,-315.430,-141.113,0.000
1587070398.903,22.949,9.766,65.430,140.137,0.000
1587070398.907,38.574,184.570,275.879,105.957,0.000
1587070398.911,-83.496,26.855,-31.738,-208.984,0.000
1587070398.915,-101.074,-258.301,-341.797,-234.375,0.000
1587070398.919,41.992,-414.062,-309.570,119.629,0.000
1587070398.923,62.988,103.516,231.934,176.758,0.000
1587070398.927,-55.176,99.121,85.449,-145.996,0.000
1587070398.930,-104.492,-498.047,-561.035,-256.348,0.000
1587070398.934,-30.762,-224.609,-229.492,-2.930,0.000
1587070398.938,30.762,600.586,616.211,153.320,0.000
1587070398.942,-20.508,499.023,466.797,-55.176,0.000
1587070398.946,-92.773,-351.562,-414.551,-262.207,0.000
1587070398.950,-47.852,-581.543,-559.082,-68.848,0.000
1587070398.954,44.922,166.992,236.328,170.410,0.000
1587070398.958,-4.883,691.895,682.129,41.016,0.000
1587070398.962,-90.332,-166.504,-189.453,-216.309,0.000
1587070398.966,-74.707,-833.008,-849.609,-145.508,0.000
1587070398.970,-0.977,236.816,206.055,117.188,0.000
1587070398.973,17.090,843.262,825.684,100.586,0.000
1587070398.977,-69.336,-137.695,-142.090,-176.270,0.000
1587070398.981,-106.445,-838.379,-869.141,-234.375,0.000
1587070398.985,-20.508,-68.359,-92.285,46.875,0.000
1587070398.989,34.668,690.430,678.223,158.691,0.000
1587070398.993,-48.828,86.914,70.312,-104.492,0.000
1587070398.997,-117.188,-781.250,-809.570,-267.090,0.000
1587070399.001,-47.363,-368.164,-394.531,-25.879,0.000
1587070399.005,32.227,700.684,677.246,176.758,0.000
1587070399.009,6.836,-0.977,92.285,-5.859,0.000
1587070399.012,-95.215,-744.141,-689.941,-243.652,0.000
1587070399.016,-66.895,-81.543,-158.203,-104.980,0.000
1587070399.020,51.270,387.695,394.531,164.062,0.000
1587070399.024,41.992,376.465,429.199,73.730,0.000
1587070399.028,-78.613,-32.227,-66.406,-239.258,0.000
1587070399.032,-112.793,-157.715,-230.469,-213.379,0.000
1587070399.036,7.324,466.797,479.980,112.305,0.000
1587070399.040,54.688,609.375,711.426,145.020,0.000
1587070399.044,-57.129,-247.070,-172.852,-158.691,0.000
1587070399.048,-125.977,-687.012,-675.781,-237.793,0.000
1587070399.052,-44.434,-243.652,-174.316,53.223,0.000
1587070399.055,35.156,-245.117,-28.809,194.336,0.000
1587070399.059,-71.289,-28.809,36.621,-78.613,0.000
1587070399.063,-151.855,-122.559,-211.426,-272.461,0.000
1587070399.067,-43.945,-271.484,-271.973,-33.691,0.000
1587070399.071,40.527,381.348,431.152,180.176,0.000
1587070399.075,-11.230,603.516,577.148,3.418,0.000
1587070399.079,-105.957,-106.445,-181.641,-263.672,0.000
1587070399.083,-76.172,-368.164,-393.555,-133.789,0.000
1587070399.087,23.438,381.348,388.672,151.855,0.000
1587070399.091,28.320,497.559,524.902,100.098,0.000
1587070399.095,-61.523,-273.438,-262.695,-192.871,0.000
1587070399.098,-33.203,-942.871,-941.406,-184.082,0.000
1587070399.102,116.211,-482.910,-477.539,112.305,0.000
1587070399.106,109.863,729.980,707.520,163.574,0.000
1587070399.110,-27.832,347.656,291.992,-96.680,0.000
1587070399.114,-82.520,-590.820,-624.512,-187.988,0.000
1587070399.118,-66.895,-131.836,-123.535,64.453,0.000
1587070399.122,-31.738,809.082,824.219,194.336,0.000
1587070399.126,-84.473,463.867,495.605,-55.664,0.000
1587070399.130,-155.762,-534.180,-488.770,-262.695,0.000
1587070399.134,-87.891,-218.262,-178.711,-51.270,0.000
1587070399.137,28.320,397.949,520.996,211.914,0.000
1587070399.141,3.418,140.137,308.594,76.660,0.000
1587070399.145,-78.613,-785.645,-739.258,-166.504,0.000
1587070399.149,-68.359,-461.914,-471.191,-80.566,0.000
1587070399.153,20.996,593.750,653.320,159.180,0.000
1587070399.157,32.715,567.383,683.105,112.305,0.000
1587070399.161,-74.707,-170.898,-102.539,-181.152,0.000
1587070399.165,-103.516,-296.875,-316.406,-225.098,0.000
1587070399.169,0.977,260.254,275.391,50.293,0.000
1587070399.173,71.289,378.418,487.305,135.742,0.000
1587070399.177,-9.277,-26.367,35.645,-144.043,0.000
1587070399.180,-119.141,-279.297,-318.359,-302.734,0.000
1587070399.184,-36.621,-164.062,-140.625,-29.297,0.000
1587070399.188,56.641,-63.965,101.562,165.527,0.000
1587070399.192,-30.762,-341.309,-214.355,-70.312,0.000
1587070399.196,-132.324,-359.863,-435.059,-293.457,0.000
1587070399.200,-79.590,-102.539,-193.848,-114.258,0.000
1587070399.204,36.621,194.336,252.930,150.391,0.000
1587070399.208,28.320,489.258,521.484,59.082,0.000
1587070399.212,-87.891,52.246,-48.828,-227.539,0.000
1587070399.216,-87.891,-441.406,-507.812,-179.688,0.000
1587070399.220,19.531,43.945,81.543,119.141,0.000
1587070399.223,47.363,656.250,668.945,129.395,0.000
1587070399.227,-62.988,209.473,154.785,-174.805,0.000
1587070399.231,-102.539,-697.754,-734.863,-233.398,0.000
1587070399.235,12.207,-906.250,-808.594,88.379,0.000
1587070399.239,50.293,269.531,353.516,194.824,0.000
1587070399.243,-38.086,586.914,538.574,-97.656,0.000
1587070399.247,-91.797,-413.086,-445.801,-258.301,0.000
1587070399.251,-36.133,-403.320,-354.492,-25.879,0.000
1587070399.255,29.297,726.562,755.859,173.828,0.000
1587070399.259,-9.277,726.562,689.453,9.277,0.000
1587070399.262,-102.539,-394.043,-440.430,-231.934,0.000
1587070399.266,-76.172,-339.844,-377.930,-100.586,0.000
1587070399.270,16.602,575.195,552.734,145.020,0.000
1587070399.274,23.438,510.254,503.906,78.613,0.000
1587070399.278,37.598,648.438,630.859,127.930,0.000
1587070399.282,15.625,152.344,225.586,61.523,0.000
1587070399.286,-79.102,-714.355,-656.738,-237.793,0.000
1587070399.290,-59.570,-177.246,-235.352,-135.254,0.000
1587070399.294,29.785,607.910,556.641,153.809,0.000
1587070399.298,34.180,183.105,256.348,109.863,0.000
1587070399.302,-69.336,-802.246,-714.844,-183.105,0.000
1587070399.305,-109.375,-409.180,-475.098,-185.059,0.000
1587070399.309,-0.977,338.867,304.688,101.074,0.000
1587070399.313,40.527,488.281,527.344,140.137,0.000
1587070399.317,-66.895,95.215,69.824,-147.461,0.000
1587070399.321,-113.770,-243.164,-316.406,-227.539,0.000
1587070399.325,-22.461,-124.512,-119.629,41.504,0.000
1587070399.329,38.086,199.219,284.668,173.340,0.000
1587070399.333,-20.996,79.590,91.797,-47.363,0.000
1587070399.337,-114.258,-204.590,-290.527,-264.648,0.000
1587070399.341,-65.430,-37.109,-89.355,-71.289,0.000
1587070399.345,37.109,-191.895,-56.641,194.824,0.000
1587070399.348,-19.531,-180.176,-42.969,37.109,0.000
1587070399.352,-133.301,-72.266,-148.926,-248.535,0.000
