timestamps,TP9,AF7,AF8,TP10,Right AUX
1587072127.261,-20.508,-832.031,-115.723,-3.906,0.000
1587072127.265,-1.953,197.754,-80.078,-76.660,0.000
1587072127.269,31.250,629.395,-88.867,2.930,0.000
1587072127.273,8.789,44.434,-96.191,34.180,0.000
1587072127.277,-34.668,-137.207,-84.473,-29.785,0.000
1587072127.280,-16.113,229.980,-68.359,-58.105,0.000
1587072127.284,16.602,535.156,-75.684,-24.902,0.000
1587072127.288,11.719,344.238,-102.539,20.996,0.000
1587072127.292,-21.973,-229.980,-111.816,12.695,0.000
1587072127.296,-19.043,-227.539,-84.473,-28.320,0.000
1587072127.300,21.973,51.270,-86.914,-11.719,0.000
1587072127.304,13.184,-404.297,-91.309,55.664,0.000
1587072127.308,-34.668,-84.473,-83.984,41.016,0.000
1587072127.312,-27.344,32.715,-117.188,-37.598,0.000
1587072127.316,17.090,10.742,-122.559,-39.062,0.000
1587072127.320,17.578,415.039,-110.352,23.926,0.000
1587072127.323,-25.391,418.945,-99.609,33.203,0.000
1587072127.327,-20.508,124.512,-99.121,-1.465,0.000
1587072127.331,18.066,28.320,-115.723,-29.785,0.000
1587072127.335,-3.906,401.367,-112.305,-36.621,0.000
1587072127.339,-41.992,156.250,-118.164,-20.996,0.000
1587072127.343,-59.570,-373.047,-111.328,-43.457,0.000
1587072127.347,-46.875,-599.609,-93.750,-97.168,0.000
1587072127.351,-20.020,-153.320,-58.105,-85.449,0.000
1587072127.355,-34.668,395.996,-60.547,-22.461,0.000
1587072127.359,-65.918,-195.801,-102.539,-30.273,0.000
1587072127.362,-61.035,-332.520,-107.910,-105.469,0.000
1587072127.366,-7.812,423.340,-98.633,-75.195,0.000
1587072127.370,-15.137,636.230,-112.793,-12.207,0.000
1587072127.374,-75.684,165.527,-126.953,-15.137,0.000
1587072127.378,-78.613,-124.512,-136.719,-72.754,0.000
1587072127.382,-53.223,37.109,-145.508,-85.449,0.000
1587072127.386,-25.879,149.902,-110.840,-33.691,0.000
1587072127.390,-32.715,-219.727,-87.402,-12.695,0.000
1587072127.394,-52.246,-840.820,-89.355,-42.969,0.000
1587072127.398,-23.926,45.410,-66.895,-86.426,0.000
1587072127.402,24.902,733.398,-79.102,-35.645,0.000
1587072127.405,-2.441,67.383,-99.609,25.879,0.000
1587072127.409,-53.223,-174.316,-94.238,-43.457,0.000
1587072127.413,-41.992,18.555,-89.844,-110.840,0.000
1587072127.417,-2.441,367.188,-88.379,-61.523,0.000
1587072127.421,11.230,220.215,-106.934,19.531,0.000
1587072127.425,-38.574,-97.656,-108.887,-15.137,0.000
1587072127.429,-41.016,-14.160,-88.379,-80.078,0.000
1587072127.433,0.977,82.031,-87.891,-73.730,0.000
1587072127.437,12.695,-147.461,-99.121,-6.348,0.000
1587072127.441,-19.043,-512.207,-77.637,1.465,0.000
1587072127.445,-53.711,-88.867,-78.125,-76.172,0.000
1587072127.448,-22.461,241.211,-102.539,-101.562,0.000
1587072127.452,-8.301,220.215,-107.422,-39.062,0.000
1587072127.456,-50.293,224.121,-123.535,-21.973,0.000
1587072127.460,-85.938,114.746,-131.836,-85.449,0.000
1587072127.464,-56.641,181.641,-139.648,-125.000,0.000
1587072127.468,-25.391,238.770,-132.812,-80.078,0.000
1587072127.472,-55.176,151.855,-116.699,-29.297,0.000
1587072127.476,-97.656,48.828,-126.953,-56.641,0.000
1587072127.480,-69.336,-300.293,-134.766,-96.191,0.000
1587072127.484,-22.461,-685.547,-134.766,-76.172,0.000
1587072127.487,-40.039,-27.832,-122.559,-51.270,0.000
1587072127.491,-64.941,351.074,-125.000,-47.852,0.000
1587072127.495,-50.293,-18.066,-135.254,-81.543,0.000
1587072127.499,-22.949,-75.684,-120.605,-102.051,0.000
1587072127.503,-19.043,557.617,-108.887,-46.387,0.000
1587072127.507,-49.316,492.676,-119.141,-14.160,0.000
1587072127.511,-59.570,-107.422,-124.512,-76.172,0.000
1587072127.515,-29.297,133.789,-125.000,-109.863,0.000
1587072127.519,-1.465,570.801,-132.812,-71.289,0.000
1587072127.523,-16.602,374.512,-131.348,-43.457,0.000
1587072127.527,-39.551,-451.660,-129.395,-74.219,0.000
1587072127.530,-45.410,-532.227,-107.910,-121.582,0.000
1587072127.534,-20.508,316.895,-77.148,-85.449,0.000
1587072127.538,-9.277,521.973,-96.680,-26.855,0.000
1587072127.542,-39.551,-327.637,-133.789,-64.941,0.000
1587072127.546,-28.320,-302.246,-116.699,-128.906,0.000
1587072127.550,20.020,497.070,-97.168,-104.004,0.000
1587072127.554,29.785,432.129,-109.863,-4.395,0.000
1587072127.558,-30.273,-504.395,-120.605,1.953,0.000
1587072127.562,-37.598,-433.105,-91.309,-79.590,0.000
1587072127.566,6.836,171.875,-85.938,-86.426,0.000
1587072127.570,-4.395,304.688,-95.215,-44.922,0.000
1587072127.573,-45.410,-354.980,-85.449,-36.621,0.000
1587072127.577,-68.848,-597.656,-76.172,-84.961,0.000
1587072127.581,-42.480,140.625,-80.566,-114.746,0.000
1587072127.585,-4.395,231.934,-92.285,-65.430,0.000
1587072127.589,-3.418,-682.617,-107.910,-28.809,0.000
1587072127.593,-59.570,-578.125,-79.590,-75.684,0.000
1587072127.597,-52.734,-7.324,-62.988,-119.629,0.000
1587072127.601,-3.906,235.840,-70.312,-83.496,0.000
1587072127.605,-20.996,337.891,-69.824,-15.137,0.000
1587072127.609,-68.359,158.203,-85.449,-37.598,0.000
1587072127.612,-57.617,140.137,-76.660,-107.910,0.000
1587072127.616,-20.020,154.785,-70.312,-102.539,0.000
1587072127.620,-37.598,76.660,-106.445,-61.035,0.000
1587072127.624,-61.035,-119.629,-107.910,-83.984,0.000
1587072127.628,-67.871,-46.387,-88.379,-157.227,0.000
1587072127.632,-57.129,-150.879,-103.027,-142.090,0.000
1587072127.636,-37.598,253.906,-103.027,-108.887,0.000
1587072127.640,-85.449,549.805,-128.418,-104.004,0.000
1587072127.644,-110.352,7.812,-145.508,-129.883,0.000
1587072127.648,-60.059,-571.289,-117.676,-154.785,0.000
1587072127.652,-34.668,-8.789,-78.125,-112.305,0.000
1587072127.655,-61.523,612.793,-101.074,-68.359,0.000
1587072127.659,-86.426,109.375,-138.184,-99.121,0.000
1587072127.663,-80.566,-222.656,-123.047,-145.020,0.000
1587072127.667,-48.340,44.922,-107.422,-107.910,0.000
1587072127.671,-54.688,145.508,-114.258,-61.035,0.000
1587072127.675,-97.656,-312.012,-140.137,-92.285,0.000
1587072127.679,-84.473,-803.711,-151.855,-156.738,0.000
1587072127.683,-66.895,-55.176,-122.070,-158.691,0.000
1587072127.687,-50.781,360.840,-121.094,-84.961,0.000
1587072127.691,-86.914,-133.301,-137.207,-76.660,0.000
1587072127.695,-121.094,-127.930,-128.418,-149.902,0.000
1587072127.698,-71.777,392.578,-114.258,-162.598,0.000
1587072127.702,-42.480,592.285,-110.840,-66.406,0.000
1587072127.706,-75.195,97.656,-128.906,-40.039,0.000
1587072127.710,-106.934,-115.234,-128.418,-132.812,0.000
1587072127.714,-81.543,12.207,-109.863,-165.039,0.000
1587072127.718,-33.203,58.594,-109.375,-93.750,0.000
1587072127.722,-50.781,-404.785,-118.164,-44.922,0.000
1587072127.726,-90.332,-676.270,-103.027,-80.566,0.000
1587072127.730,-87.402,78.613,-97.656,-144.043,0.000
1587072127.734,-59.570,564.453,-125.000,-122.070,0.000
1587072127.737,-70.801,378.906,-150.879,-60.547,0.000
1587072127.741,-84.473,213.379,-165.039,-76.660,0.000
1587072127.745,-77.148,266.113,-149.414,-121.094,0.000
1587072127.749,-53.711,348.633,-127.930,-125.488,0.000
1587072127.753,-42.969,317.383,-130.371,-80.566,0.000
1587072127.757,-75.684,298.340,-126.953,-73.242,0.000
1587072127.761,-88.379,-116.699,-122.070,-128.906,0.000
1587072127.765,-52.734,-280.273,-100.098,-149.902,0.000
1587072127.769,-20.508,-135.254,-83.008,-89.844,0.000
1587072127.773,-56.641,196.289,-101.074,-59.082,0.000
1587072127.777,-91.309,114.258,-131.836,-117.188,0.000
1587072127.780,-75.195,-425.781,-125.977,-131.348,0.000
1587072127.784,-46.875,-604.980,-93.262,-67.383,0.000
1587072127.788,-66.895,178.711,-93.262,-42.969,0.000
1587072127.792,-122.070,196.777,-140.137,-106.934,0.000
1587072127.796,-116.211,-296.875,-134.766,-139.648,0.000
1587072127.800,-62.988,176.270,-107.422,-93.750,0.000
1587072127.804,-58.594,550.293,-125.000,-67.871,0.000
1587072127.808,-104.004,15.625,-125.000,-80.078,0.000
1587072127.812,-108.398,-364.746,-103.027,-103.027,0.000
1587072127.816,-64.453,183.105,-69.336,-116.211,0.000
1587072127.820,-56.641,646.973,-63.477,-66.406,0.000
1587072127.823,-98.633,86.914,-91.797,-30.762,0.000
1587072127.827,-102.539,-773.926,-96.680,-94.727,0.000
1587072127.831,-69.336,-319.824,-62.500,-143.555,0.000
1587072127.835,-41.992,620.117,-83.984,-85.938,0.000
1587072127.839,-57.617,328.613,-116.211,-38.574,0.000
1587072127.843,-97.656,-264.160,-113.281,-107.422,0.000
1587072127.847,-83.008,148.438,-97.168,-158.691,0.000
1587072127.851,-46.387,773.438,-91.797,-127.930,0.000
1587072127.855,-59.082,320.312,-126.953,-83.984,0.000
1587072127.859,-93.262,-709.473,-142.090,-88.379,0.000
1587072127.862,-89.355,-263.184,-106.445,-169.434,0.000
1587072127.866,-44.434,553.223,-101.562,-168.457,0.000
1587072127.870,-35.156,354.492,-118.164,-68.359,0.000
1587072127.874,-77.148,-269.531,-124.512,-76.660,0.000
1587072127.878,-98.145,-107.422,-137.695,-157.227,0.000
1587072127.882,-50.293,119.141,-142.578,-142.090,0.000
1587072127.886,-28.809,155.273,-121.582,-86.914,0.000
1587072127.890,-74.219,149.902,-125.977,-78.125,0.000
1587072127.894,-99.121,128.906,-124.512,-142.090,0.000
1587072127.898,-63.965,315.430,-116.211,-171.387,0.000
1587072127.902,-38.086,62.012,-135.254,-102.051,0.000
1587072127.905,-63.965,-179.688,-132.812,-70.801,0.000
1587072127.909,-110.352,133.789,-112.305,-121.094,0.000
1587072127.913,-107.422,134.766,-122.070,-180.176,0.000
1587072127.917,-65.430,-149.414,-134.277,-137.207,0.000
1587072127.921,-80.566,232.910,-120.605,-81.543,0.000
1587072127.925,-117.188,330.566,-132.812,-103.027,0.000
1587072127.929,-107.422,-123.535,-134.766,-168.945,0.000
1587072127.933,-76.172,-57.617,-114.746,-167.969,0.000
1587072127.937,-58.105,360.840,-112.793,-87.402,0.000
1587072127.941,-70.801,16.602,-129.883,-76.660,0.000
1587072127.945,-103.516,-244.629,-114.746,-135.254,0.000
1587072127.948,-73.730,-156.250,-96.191,-156.250,0.000
1587072127.952,-30.273,166.016,-86.914,-86.914,0.000
1587072127.956,-63.477,376.465,-97.656,-56.152,0.000
1587072127.960,-100.098,-153.320,-121.094,-119.141,0.000
1587072127.964,-93.262,-795.898,-113.281,-169.922,0.000
1587072127.968,-66.895,-113.770,-76.172,-134.766,0.000
1587072127.972,-69.824,490.723,-80.566,-56.641,0.000
1587072127.976,-73.730,-208.008,-90.820,-78.613,0.000
1587072127.980,-71.289,-201.172,-71.777,-140.625,0.000
1587072127.984,-33.203,512.695,-77.148,-130.859,0.000
1587072127.987,-48.340,559.570,-82.520,-77.148,0.000
1587072127.991,-111.328,-82.031,-100.586,-69.824,0.000
1587072127.995,-97.168,-370.605,-108.398,-146.484,0.000
1587072127.999,-59.082,56.641,-88.867,-151.855,0.000
1587072128.003,-51.270,373.047,-83.008,-78.125,0.000
1587072128.007,-83.496,-239.746,-109.863,-59.082,0.000
1587072128.011,-97.168,-593.750,-92.285,-113.770,0.000
1587072128.015,-64.941,82.031,-67.871,-154.297,0.000
1587072128.019,-41.016,377.441,-96.680,-106.934,0.000
1587072128.023,-57.617,-20.020,-116.699,-65.430,0.000
1587072128.027,-81.055,-191.406,-101.074,-104.004,0.000
1587072128.030,-71.289,129.395,-87.402,-156.250,0.000
1587072128.034,-33.691,394.043,-93.262,-121.094,0.000
1587072128.038,-57.129,157.715,-107.422,-75.684,0.000
1587072128.042,-106.445,-297.363,-126.953,-109.375,0.000
1587072128.046,-88.867,-187.012,-126.465,-149.902,0.000
1587072128.050,-23.438,182.617,-127.441,-109.375,0.000
1587072128.054,-13.184,-458.008,-141.113,-37.598,0.000
1587072128.058,-71.777,-484.375,-125.000,-56.641,0.000
1587072128.062,-79.590,-147.949,-106.445,-128.906,0.000
1587072128.066,-28.320,51.270,-78.125,-113.281,0.000
1587072128.070,-25.879,435.547,-70.312,-53.223,0.000
1587072128.073,-66.895,437.012,-105.957,-55.176,0.000
1587072128.077,-84.473,125.977,-133.789,-102.539,0.000
1587072128.081,-68.359,7.324,-111.328,-126.953,0.000
1587072128.085,-29.785,349.609,-100.098,-72.754,0.000
1587072128.089,-58.105,90.332,-144.043,-49.805,0.000
1587072128.093,-130.859,-366.699,-151.367,-121.582,0.000
1587072128.097,-109.863,-450.684,-133.789,-167.480,0.000
1587072128.101,-66.406,-147.461,-114.746,-125.977,0.000
1587072128.105,-81.543,471.191,-112.793,-87.402,0.000
1587072128.109,-101.074,168.457,-128.418,-115.723,0.000
1587072128.112,-83.008,-464.844,-118.164,-165.527,0.000
1587072128.116,-35.156,10.254,-84.961,-145.508,0.000
1587072128.120,-46.387,644.043,-86.426,-78.125,0.000
1587072128.124,-82.031,240.234,-115.234,-84.961,0.000
1587072128.128,-66.895,-204.102,-122.070,-153.320,0.000
1587072128.132,-53.711,160.645,-116.211,-166.992,0.000
1587072128.136,-46.387,320.312,-118.164,-93.750,0.000
1587072128.140,-79.102,-104.004,-129.883,-75.195,0.000
1587072128.144,-104.980,-760.254,-126.465,-113.770,0.000
1587072128.148,-85.938,-50.781,-79.102,-160.156,0.000
1587072128.152,-54.199,636.230,-103.516,-118.652,0.000
1587072128.155,-69.824,222.656,-150.879,-63.965,0.000
1587072128.159,-115.234,-32.715,-145.020,-107.422,0.000
1587072128.163,-87.891,188.477,-118.164,-166.016,0.000
1587072128.167,-31.738,518.555,-109.863,-107.910,0.000
1587072128.171,-62.988,188.477,-121.582,-41.016,0.000
1587072128.175,-84.473,-176.270,-110.840,-81.055,0.000
1587072128.179,-87.402,62.988,-98.633,-140.625,0.000
1587072128.183,-67.383,231.445,-100.098,-127.930,0.000
1587072128.187,-56.641,-152.832,-122.559,-62.012,0.000
1587072128.191,-99.121,-571.777,-128.906,-64.941,0.000
1587072128.195,-105.957,0.488,-111.328,-134.277,0.000
1587072128.198,-56.641,385.254,-102.051,-154.785,0.000
1587072128.202,-33.203,35.156,-120.117,-85.938,0.000
1587072128.206,-67.871,32.227,-140.625,-49.805,0.000
1587072128.210,-98.145,154.297,-152.832,-114.258,0.000
1587072128.214,-64.941,86.914,-123.047,-177.246,0.000
1587072128.218,-19.531,209.961,-83.496,-118.164,0.000
1587072128.222,-20.020,329.590,-101.074,-48.828,0.000
1587072128.226,-57.617,-17.090,-130.859,-111.328,0.000
1587072128.230,-80.566,-381.836,-135.254,-199.707,0.000
1587072128.234,-58.594,-630.859,-142.578,-150.391,0.000
1587072128.237,-79.590,-157.227,-132.812,-108.398,0.000
1587072128.241,-118.652,183.105,-145.020,-154.785,0.000
1587072128.245,-113.770,-209.473,-154.297,-217.285,0.000
1587072128.249,-91.797,-156.250,-134.766,-209.961,0.000
1587072128.253,-99.121,526.367,-141.602,-134.766,0.000
1587072128.257,-141.113,430.176,-164.551,-128.418,0.000
1587072128.261,-153.320,-94.727,-161.133,-187.500,0.000
1587072128.265,-115.723,140.625,-130.859,-200.195,0.000
1587072128.269,-74.219,586.426,-125.000,-120.605,0.000
1587072128.273,-87.402,306.641,-164.062,-94.238,0.000
1587072128.277,-120.117,-599.609,-189.941,-158.203,0.000
1587072128.280,-88.867,-439.941,-133.789,-177.734,0.000
1587072128.284,-45.410,483.887,-104.980,-103.027,0.000
1587072128.288,-69.824,326.172,-163.086,-58.594,0.000
1587072128.292,-104.004,-567.871,-190.430,-84.961,0.000
1587072128.296,-102.539,-397.949,-176.270,-148.926,0.000
1587072128.300,-55.664,474.121,-160.156,-142.578,0.000
1587072128.304,-52.734,518.066,-155.273,-81.543,0.000
1587072128.308,-84.961,-548.340,-158.691,-78.613,0.000
1587072128.312,-98.633,-438.965,-103.027,-142.090,0.000
1587072128.316,-71.777,533.203,-70.312,-159.668,0.000
1587072128.320,-48.340,636.230,-93.750,-69.824,0.000
1587072128.323,-76.172,-70.801,-128.418,-48.828,0.000
1587072128.327,-97.656,-289.062,-104.492,-110.840,0.000
1587072128.331,-83.008,368.652,-64.941,-138.672,0.000
1587072128.335,-42.480,392.090,-78.125,-87.402,0.000
1587072128.339,-38.086,-442.383,-86.426,-43.945,0.000
1587072128.343,-87.891,-396.484,-85.938,-102.051,0.000
1587072128.347,-69.336,77.637,-98.633,-160.156,0.000
1587072128.351,-33.691,240.723,-117.676,-117.676,0.000
1587072128.355,-50.781,346.191,-121.094,-63.965,0.000
1587072128.359,-84.473,258.789,-127.930,-101.562,0.000
1587072128.362,-68.359,145.508,-143.555,-125.000,0.000
1587072128.366,-26.855,168.457,-126.953,-103.027,0.000
1587072128.370,-34.668,105.957,-112.793,-57.617,0.000
1587072128.374,-70.801,-14.160,-113.281,-21.973,0.000
1587072128.378,-82.520,144.043,-100.098,-95.215,0.000
1587072128.382,-42.480,-166.504,-117.188,-128.906,0.000
1587072128.386,-16.113,-124.023,-98.633,-66.406,0.000
1587072128.390,-62.988,410.645,-105.957,-69.336,0.000
1587072128.394,-91.309,60.059,-124.512,-124.023,0.000
1587072128.398,-60.547,-96.680,-84.473,-141.113,0.000
1587072128.402,-31.250,535.156,-71.289,-88.867,0.000
1587072128.405,-67.383,410.156,-107.910,-56.152,0.000
1587072128.409,-87.891,-357.910,-125.000,-105.469,0.000
1587072128.413,-54.688,-253.418,-105.469,-140.625,0.000
1587072128.417,-47.363,111.816,-119.141,-109.375,0.000
1587072128.421,-66.895,291.992,-118.164,-61.035,0.000
1587072128.425,-81.543,50.293,-135.254,-56.641,0.000
1587072128.429,-70.801,-684.570,-153.320,-109.863,0.000
1587072128.433,-45.410,59.082,-118.164,-110.840,0.000
1587072128.437,-22.949,575.684,-132.324,-43.457,0.000
1587072128.441,-62.012,-4.883,-190.430,-28.320,0.000
1587072128.445,-89.355,-124.023,-169.922,-89.355,0.000
1587072128.448,-54.199,418.457,-126.465,-130.371,0.000
1587072128.452,-34.180,674.316,-142.578,-74.707,0.000
1587072128.456,-66.895,159.668,-160.645,-33.691,0.000
1587072128.460,-83.984,-197.266,-146.973,-75.684,0.000
1587072128.464,-42.969,-107.422,-125.488,-108.887,0.000
1587072128.468,-12.695,81.543,-122.559,-66.895,0.000
1587072128.472,-25.879,-145.996,-126.953,-25.391,0.000
1587072128.476,-69.824,-226.074,-118.652,-58.594,0.000
1587072128.480,-73.730,199.707,-110.352,-117.676,0.000
1587072128.484,-19.531,446.777,-113.770,-108.887,0.000
1587072128.487,-20.020,-157.715,-145.508,-40.039,0.000
1587072128.491,-85.449,-399.414,-128.418,-59.570,0.000
1587072128.495,-90.820,162.598,-114.258,-142.090,0.000
1587072128.499,-43.457,244.629,-137.207,-139.648,0.000
1587072128.503,-19.043,55.664,-138.184,-70.312,0.000
1587072128.507,-67.383,249.023,-133.301,-59.082,0.000
1587072128.511,-107.910,51.758,-147.949,-113.281,0.000
1587072128.515,-59.570,-120.117,-136.719,-135.742,0.000
1587072128.519,-31.250,-336.914,-147.461,-83.496,0.000
1587072128.523,-69.336,-150.879,-159.668,-49.805,0.000
1587072128.527,-93.750,-63.965,-142.578,-104.492,0.000
1587072128.530,-52.246,-221.191,-106.934,-156.738,0.000
1587072128.534,-30.273,281.250,-79.590,-112.305,0.000
1587072128.538,-48.340,551.270,-99.609,-47.363,0.000
1587072128.542,-51.270,228.027,-135.742,-36.621,0.000
1587072128.546,-69.336,-23.438,-146.484,-101.074,0.000
1587072128.550,-64.941,336.914,-115.234,-130.371,0.000
1587072128.554,-32.715,596.191,-106.445,-55.176,0.000
1587072128.558,-74.219,57.129,-149.414,-54.688,0.000
1587072128.562,-90.820,-684.082,-158.203,-113.770,0.000
1587072128.566,-46.387,-413.574,-114.746,-130.859,0.000
1587072128.570,-39.551,594.238,-134.766,-68.359,0.000
1587072128.573,-68.359,381.348,-173.340,-45.410,0.000
1587072128.577,-80.566,-291.504,-163.086,-100.098,0.000
1587072128.581,-40.527,-252.441,-143.555,-124.512,0.000
1587072128.585,-15.625,251.953,-125.977,-80.078,0.000
1587072128.589,-46.387,296.387,-132.324,-25.879,0.000
1587072128.593,-76.660,-241.699,-142.090,-65.918,0.000
1587072128.597,-50.293,14.160,-137.207,-104.004,0.000
1587072128.601,-2.441,630.371,-122.559,-62.988,0.000
1587072128.605,0.977,254.883,-126.465,-8.789,0.000
1587072128.609,-44.434,-754.395,-150.391,-12.695,0.000
1587072128.612,-55.664,-380.371,-107.910,-63.477,0.000
1587072128.616,-9.766,504.395,-80.566,-68.848,0.000
1587072128.620,1.953,495.605,-105.957,-29.785,0.000
1587072128.624,-39.551,15.137,-120.605,-29.785,0.000
1587072128.628,-67.383,113.770,-114.258,-72.266,0.000
1587072128.632,-36.133,500.977,-107.422,-96.191,0.000
1587072128.636,-20.020,367.188,-121.094,-22.949,0.000
1587072128.640,-54.688,-125.977,-119.141,14.648,0.000
1587072128.644,-79.102,-102.539,-100.586,-49.805,0.000
1587072128.648,-32.715,277.344,-109.375,-78.125,0.000
1587072128.652,13.672,27.832,-119.629,-19.531,0.000
1587072128.655,-38.086,-165.527,-107.422,20.508,0.000
1587072128.659,-72.266,94.727,-97.656,-35.645,0.000
1587072128.663,-43.457,185.547,-112.305,-95.215,0.000
1587072128.667,-27.344,-44.922,-148.926,-64.453,0.000
1587072128.671,-54.199,188.965,-145.508,-21.484,0.000
1587072128.675,-103.027,303.711,-153.809,-52.246,0.000
1587072128.679,-102.051,-4.395,-148.926,-109.863,0.000
1587072128.683,-46.875,123.047,-112.793,-105.957,0.000
1587072128.687,-12.207,485.352,-106.445,-36.133,0.000
1587072128.691,-47.363,320.312,-133.301,-20.508,0.000
1587072128.695,-75.684,-85.449,-129.883,-70.801,0.000
1587072128.698,-56.152,-111.328,-104.004,-98.145,0.000
1587072128.702,-21.484,39.551,-101.562,-27.832,0.000
1587072128.706,-41.504,-3.906,-89.355,-7.812,0.000
1587072128.710,-84.961,-279.785,-95.215,-55.664,0.000
1587072128.714,-39.062,-766.113,-106.445,-62.988,0.000
1587072128.718,-1.465,-260.742,-85.938,-45.410,0.000
1587072128.722,-14.160,403.809,-91.797,-6.348,0.000
1587072128.726,-42.480,-22.461,-110.352,-9.766,0.000
1587072128.730,-60.059,-115.234,-85.938,-75.195,0.000
1587072128.734,-52.734,486.328,-69.336,-83.008,0.000
1587072128.737,-45.898,705.078,-74.707,-19.043,0.000
1587072128.741,-70.801,57.617,-110.840,-33.691,0.000
1587072128.745,-64.941,-380.371,-104.004,-81.543,0.000
1587072128.749,-10.742,-16.602,-68.848,-65.430,0.000
1587072128.753,-2.930,460.449,-79.102,-6.836,0.000
1587072128.757,-52.246,-254.395,-138.184,23.438,0.000
1587072128.761,-74.219,-715.332,-112.793,-45.898,0.000
1587072128.765,-49.316,338.379,-60.547,-96.680,0.000
1587072128.769,-14.648,738.281,-81.543,-28.320,0.000
1587072128.773,-49.316,100.586,-98.633,6.836,0.000
1587072128.777,-80.566,-97.656,-80.566,-38.086,0.000
1587072128.780,-39.062,225.098,-77.148,-81.543,0.000
1587072128.784,-15.625,382.324,-77.148,-52.734,0.000
1587072128.788,-36.621,130.371,-77.637,8.789,0.000
1587072128.792,-62.988,-233.398,-102.051,-15.625,0.000
1587072128.796,-24.902,-196.777,-100.098,-55.176,0.000
1587072128.800,-12.207,105.469,-97.656,-9.766,0.000
1587072128.804,-44.922,219.727,-88.379,12.207,0.000
1587072128.808,-48.340,101.074,-88.867,-16.602,0.000
1587072128.812,-52.734,-213.379,-86.426,-66.895,0.000
1587072128.816,-20.020,-33.203,-69.824,-49.805,0.000
1587072128.820,-3.906,318.848,-61.523,12.207,0.000
1587072128.823,-40.039,378.906,-58.594,22.461,0.000
1587072128.827,-56.152,216.797,-71.777,-39.551,0.000
1587072128.831,-29.297,-193.848,-100.098,-68.359,0.000
1587072128.835,3.906,-266.602,-98.145,-13.184,0.000
1587072128.839,-20.996,33.691,-116.699,10.742,0.000
1587072128.843,-49.805,-137.695,-119.629,-37.598,0.000
1587072128.847,-32.715,-537.598,-104.492,-82.520,0.000
1587072128.851,-0.977,-454.590,-93.750,-45.898,0.000
1587072128.855,-10.254,421.387,-95.215,-4.883,0.000
1587072128.859,-57.617,46.387,-126.465,-33.203,0.000
1587072128.862,-67.871,-448.730,-119.141,-60.547,0.000
1587072128.866,-20.508,288.574,-95.703,-44.434,0.000
1587072128.870,-8.301,600.586,-90.820,-5.859,0.000
1587072128.874,-50.781,-45.898,-104.980,8.301,0.000
1587072128.878,-69.824,-221.191,-86.914,-45.898,0.000
1587072128.882,-41.992,430.176,-91.309,-89.355,0.000
1587072128.886,-5.371,507.812,-121.094,-15.137,0.000
1587072128.890,-35.156,-185.547,-114.746,43.457,0.000
1587072128.894,-72.266,-841.797,-121.582,-6.348,0.000
1587072128.898,-60.547,-131.836,-116.211,-65.918,0.000
1587072128.902,-12.207,523.926,-113.281,-13.672,0.000
1587072128.905,-20.508,104.980,-122.559,24.414,0.000
1587072128.909,-69.336,-116.699,-130.859,-28.809,0.000
1587072128.913,-53.711,67.383,-97.656,-74.219,0.000
1587072128.917,-13.184,373.535,-74.219,-49.805,0.000
1587072128.921,-21.973,188.477,-102.051,16.113,0.000
1587072128.925,-62.500,-145.996,-106.934,-14.160,0.000
1587072128.929,-56.152,-98.145,-91.309,-82.031,0.000
1587072128.933,0.000,122.070,-86.914,-53.711,0.000
1587072128.937,2.441,-181.152,-101.562,17.090,0.000
1587072128.941,-34.668,-445.312,-90.820,16.602,0.000
1587072128.945,-46.387,-12.695,-87.402,-50.293,0.000
1587072128.948,-22.949,206.055,-115.723,-83.984,0.000
1587072128.952,-14.648,163.086,-105.957,-11.230,0.000
1587072128.956,-37.598,314.453,-80.566,17.090,0.000
1587072128.960,-67.383,221.680,-89.844,-61.523,0.000
1587072128.964,-51.270,121.094,-101.562,-107.910,0.000
1587072128.968,-21.973,191.406,-101.562,-54.688,0.000
1587072128.972,-45.410,386.719,-104.492,3.906,0.000
1587072128.976,-67.383,267.578,-89.355,-13.184,0.000
1587072128.980,-44.922,-144.531,-79.102,-73.730,0.000
1587072128.984,-5.859,-486.328,-84.473,-27.344,0.000
1587072128.987,-4.883,56.152,-84.473,23.438,0.000
1587072128.991,-67.383,73.730,-107.910,-31.738,0.000
1587072128.995,-60.547,-311.523,-104.980,-62.988,0.000
1587072128.999,-8.789,12.207,-82.031,-35.156,0.000
1587072129.003,-25.879,507.324,-89.355,-8.789,0.000
1587072129.007,-88.867,253.418,-102.051,-36.621,0.000
1587072129.011,-122.559,-197.266,-93.262,-100.098,0.000
1587072129.015,-75.684,104.980,-80.566,-103.027,0.000
1587072129.019,-41.992,661.621,-93.750,-45.898,0.000
1587072129.023,-76.660,582.520,-113.770,-29.785,0.000
1587072129.027,-89.844,-280.273,-119.629,-70.312,0.000
1587072129.030,-64.453,-386.719,-83.496,-103.516,0.000
1587072129.034,-47.363,492.676,-71.777,-72.754,0.000
1587072129.038,-54.688,532.227,-100.098,-21.484,0.000
1587072129.042,-65.430,-460.449,-118.652,-17.578,0.000
1587072129.046,-80.078,-604.492,-90.820,-83.984,0.000
1587072129.050,-57.129,219.238,-68.848,-90.820,0.000
1587072129.054,-47.363,493.164,-66.895,-16.602,0.000
1587072129.058,-70.801,-62.500,-71.289,-6.348,0.000
1587072129.062,-92.285,-165.039,-65.918,-78.613,0.000
1587072129.066,-68.359,424.805,-45.410,-105.469,0.000
1587072129.070,-20.020,453.613,-42.969,-6.348,0.000
1587072129.073,-47.363,-285.156,-62.500,18.066,0.000
1587072129.077,-72.754,-362.793,-50.781,-72.754,0.000
1587072129.081,-34.180,264.648,-24.414,-83.496,0.000
1587072129.085,-18.066,318.359,-36.621,-50.293,0.000
1587072129.089,-50.293,-547.363,-51.758,-11.230,0.000
1587072129.093,-68.848,-555.664,-35.645,-53.711,0.000
1587072129.097,-49.805,77.148,-39.551,-108.398,0.000
1587072129.101,-16.602,199.219,-52.246,-56.641,0.000
1587072129.105,-13.672,84.473,-48.340,2.441,0.000
1587072129.109,-41.016,-163.574,-43.457,-0.488,0.000
1587072129.112,-51.758,-86.426,-49.805,-60.059,0.000
1587072129.116,-29.297,127.930,-49.316,-72.266,0.000
1587072129.120,-18.555,96.191,-38.574,8.789,0.000
1587072129.124,-50.293,-104.980,-37.109,26.367,0.000
1587072129.128,-54.199,15.625,-33.203,-52.734,0.000
1587072129.132,-12.207,-193.848,-41.504,-58.105,0.000
1587072129.136,7.812,-34.180,-41.992,9.277,0.000
1587072129.140,-34.668,540.039,-56.152,23.438,0.000
1587072129.144,-73.242,216.797,-82.520,-20.508,0.000
1587072129.148,-41.016,43.457,-78.125,-54.688,0.000
1587072129.152,1.465,605.957,-57.617,8.301,0.000
1587072129.155,-11.719,707.031,-52.246,54.199,0.000
1587072129.159,-49.316,158.203,-48.340,-7.812,0.000
1587072129.163,-44.922,-137.695,-26.367,-75.684,0.000
1587072129.167,-11.230,68.359,-25.879,-43.457,0.000
1587072129.171,-26.367,144.531,-63.965,9.766,0.000
1587072129.175,-64.941,-269.531,-79.102,-0.977,0.000
1587072129.179,-54.688,-819.824,-59.570,-54.199,0.000
1587072129.183,-31.250,-155.273,-43.945,-65.430,0.000
1587072129.187,-12.695,348.633,-66.406,-7.812,0.000
1587072129.191,-55.664,-66.895,-93.262,-6.348,0.000
1587072129.195,-76.660,-117.188,-95.703,-85.938,0.000
1587072129.198,-28.809,377.441,-88.867,-88.379,0.000
1587072129.202,7.324,684.082,-79.590,-7.812,0.000
1587072129.206,-22.461,269.531,-73.242,7.812,0.000
1587072129.210,-71.777,-92.285,-55.176,-46.875,0.000
1587072129.214,-46.875,-56.641,-37.598,-84.961,0.000
1587072129.218,-2.930,298.828,-43.457,-39.062,0.000
1587072129.222,-26.855,-1.953,-75.684,31.250,0.000
1587072129.226,-74.707,-451.660,-56.152,-16.602,0.000
1587072129.230,-50.781,187.012,-41.992,-86.426,0.000
1587072129.234,13.184,570.801,-66.895,-54.199,0.000
1587072129.237,-1.465,-171.387,-88.379,21.973,0.000
1587072129.241,-48.828,-444.824,-87.402,3.906,0.000
1587072129.245,-53.711,71.777,-76.660,-53.223,0.000
1587072129.249,-8.789,360.352,-70.312,-41.504,0.000
1587072129.253,-13.672,398.926,-65.918,-5.859,0.000
1587072129.257,-70.312,241.699,-64.453,-2.441,0.000
1587072129.261,-72.266,-167.969,-69.336,-67.383,0.000
1587072129.265,-25.879,-227.539,-77.637,-83.496,0.000
1587072129.269,-5.859,-166.504,-91.797,-17.090,0.000
1587072129.273,-45.410,207.031,-91.309,7.812,0.000
1587072129.277,-68.359,177.246,-77.637,-34.668,0.000
1587072129.280,-44.434,-262.207,-63.965,-71.289,0.000
1587072129.284,-21.973,-133.301,-52.246,-30.273,0.000
1587072129.288,-43.457,302.734,-55.664,8.301,0.000
1587072129.292,-83.008,284.668,-82.031,-37.109,0.000
1587072129.296,-64.453,-138.184,-109.863,-64.453,0.000
1587072129.300,-15.625,-111.816,-87.402,-62.500,0.000
1587072129.304,-27.344,402.344,-78.613,-19.043,0.000
1587072129.308,-56.152,-0.488,-98.145,-18.066,0.000
1587072129.312,-52.246,-684.082,-102.051,-82.031,0.000
1587072129.316,-18.066,-467.285,-58.594,-85.449,0.000
1587072129.320,-11.230,545.898,-30.273,-7.812,0.000
1587072129.323,-38.574,499.023,-55.176,6.348,0.000
1587072129.327,-58.105,-162.598,-63.477,-54.199,0.000
1587072129.331,-27.344,136.719,-59.082,-76.172,0.000
1587072129.335,7.324,742.188,-76.172,-26.855,0.000
1587072129.339,-28.320,413.574,-83.984,4.883,0.000
1587072129.343,-66.406,-397.949,-52.246,-42.480,0.000
1587072129.347,-48.828,13.184,-39.551,-72.754,0.000
1587072129.351,-1.953,543.945,-47.852,-33.203,0.000
1587072129.355,10.742,133.789,-51.270,24.902,0.000
1587072129.359,-36.621,-253.906,-63.477,11.230,0.000
1587072129.362,-37.109,62.988,-69.824,-78.125,0.000
1587072129.366,7.812,524.902,-80.566,-71.289,0.000
1587072129.370,2.930,251.953,-105.469,16.602,0.000
1587072129.374,-41.016,-737.793,-105.469,13.184,0.000
1587072129.378,-61.035,-360.352,-66.406,-52.246,0.000
1587072129.382,-18.066,416.016,-55.176,-62.012,0.000
1587072129.386,14.648,349.121,-79.590,-2.930,0.000
1587072129.390,-14.160,170.410,-86.426,18.066,0.000
1587072129.394,-15.625,63.965,-74.707,-34.180,0.000
1587072129.398,5.859,-16.113,-81.055,-73.242,0.000
1587072129.402,20.508,-111.816,-104.980,-21.484,0.000
1587072129.405,-12.207,-177.734,-115.234,18.555,0.000
1587072129.409,-67.383,-80.078,-84.473,-17.090,0.000
1587072129.413,-38.574,80.078,-61.523,-64.941,0.000
1587072129.417,11.719,-354.980,-65.430,-31.738,0.000
1587072129.421,-10.254,-267.090,-42.969,15.137,0.000
1587072129.425,-64.453,148.926,-65.430,-8.789,0.000
1587072129.429,-78.125,2.441,-86.914,-56.641,0.000
1587072129.433,-30.762,47.363,-70.801,-45.898,0.000
1587072129.437,-17.578,383.301,-68.359,23.926,0.000
1587072129.441,-55.664,369.141,-82.520,13.672,0.000
1587072129.445,-38.574,-11.719,-98.633,-41.992,0.000
1587072129.448,13.672,-173.828,-88.867,-39.062,0.000
1587072129.452,11.230,182.129,-70.801,-0.488,0.000
1587072129.456,-36.133,201.660,-79.590,12.695,0.000
1587072129.460,-56.152,-159.668,-87.402,-24.902,0.000
1587072129.464,-16.113,-220.215,-64.941,-47.363,0.000
1587072129.468,6.836,115.723,-47.852,-11.230,0.000
1587072129.472,-31.250,476.562,-60.547,22.461,0.000
1587072129.476,-52.734,-68.848,-104.980,-0.488,0.000
1587072129.480,-23.438,-666.504,-80.078,-51.270,0.000
1587072129.484,14.648,256.348,-44.434,-38.086,0.000
1587072129.487,2.930,684.082,-65.918,30.273,0.000
1587072129.491,-44.922,36.133,-96.191,18.066,0.000
1587072129.495,-40.039,-308.105,-114.746,-45.410,0.000
1587072129.499,-19.531,60.547,-111.816,-37.598,0.000
1587072129.503,-10.742,525.879,-101.074,20.996,0.000
1587072129.507,-35.156,-193.359,-125.488,47.852,0.000
1587072129.511,-52.246,-578.125,-122.070,-4.395,0.000
1587072129.515,-13.672,82.520,-110.840,-61.523,0.000
1587072129.519,16.113,186.035,-115.723,-12.695,0.000
1587072129.523,-27.344,-349.121,-122.070,27.832,0.000
1587072129.527,-66.406,-188.965,-126.465,-36.133,0.000
1587072129.530,-39.062,342.773,-114.746,-78.125,0.000
1587072129.534,0.000,417.480,-83.496,-29.297,0.000
1587072129.538,-3.906,173.828,-88.379,34.180,0.000
1587072129.542,-40.039,-217.773,-112.793,2.930,0.000
1587072129.546,-28.320,-227.051,-89.355,-28.320,0.000
1587072129.550,26.367,103.516,-66.895,5.859,0.000
1587072129.554,33.203,-355.957,-93.750,50.781,0.000
1587072129.558,-19.043,-292.969,-96.680,28.809,0.000
1587072129.562,-20.996,-122.559,-99.609,-32.227,0.000
1587072129.566,9.766,-21.973,-109.863,-46.387,0.000
1587072129.570,19.531,448.242,-120.605,6.348,0.000
1587072129.573,-3.418,216.797,-116.699,24.902,0.000
1587072129.577,-23.926,-81.055,-80.078,-38.574,0.000
1587072129.581,-5.859,5.371,-86.914,-46.875,0.000
1587072129.585,17.578,341.309,-101.074,13.672,0.000
1587072129.589,-9.277,185.059,-120.605,4.395,0.000
1587072129.593,-41.016,-222.656,-124.023,-28.320,0.000
1587072129.597,-7.812,-485.352,-120.117,-58.594,0.000
1587072129.601,4.883,-198.242,-104.004,-41.992,0.000
1587072129.605,-24.902,627.441,-99.609,19.531,0.000
1587072129.609,-56.641,355.957,-118.652,2.930,0.000
1587072129.612,-43.945,-123.047,-98.145,-53.711,0.000
1587072129.616,0.977,353.516,-62.988,-37.109,0.000
1587072129.620,-12.207,676.270,-73.730,24.414,0.000
1587072129.624,-52.734,237.793,-90.820,4.883,0.000
1587072129.628,-44.922,-166.016,-82.031,-65.918,0.000
1587072129.632,-2.930,5.371,-76.172,-72.754,0.000
1587072129.636,-4.883,271.484,-86.426,-22.949,0.000
1587072129.640,-27.832,-3.906,-104.980,0.000,0.000
1587072129.644,-21.484,-805.176,-116.211,-20.996,0.000
1587072129.648,-12.695,-195.801,-78.613,-87.891,0.000
1587072129.652,20.996,571.777,-65.918,-50.293,0.000
1587072129.655,-5.859,124.023,-83.008,37.598,0.000
1587072129.659,-47.363,-132.324,-82.520,-2.441,0.000
1587072129.663,-27.344,207.520,-82.031,-100.098,0.000
1587072129.667,-5.859,539.551,-82.520,-64.941,0.000
1587072129.671,-7.812,330.566,-68.848,16.113,0.000
1587072129.675,-40.527,79.590,-70.801,-29.785,0.000
1587072129.679,-33.203,161.621,-87.891,-84.473,0.000
1587072129.683,12.695,270.508,-84.961,-66.406,0.000
1587072129.687,40.039,-84.473,-84.473,24.414,0.000
1587072129.691,-1.465,-653.809,-80.566,33.691,0.000
1587072129.695,-55.664,-145.508,-84.473,-47.852,0.000
1587072129.698,-9.766,401.855,-68.359,-50.781,0.000
1587072129.702,38.574,333.008,-60.547,30.273,0.000
1587072129.706,4.883,204.102,-81.543,62.988,0.000
1587072129.710,-34.180,80.566,-85.449,-17.090,0.000
1587072129.714,-7.324,55.176,-69.824,-65.430,0.000
1587072129.718,29.297,168.945,-58.594,-4.395,0.000
1587072129.722,-1.953,327.148,-82.031,51.758,0.000
1587072129.726,-26.367,101.562,-99.609,-1.465,0.000
1587072129.730,-0.977,-317.383,-91.797,-41.504,0.000
1587072129.734,6.836,-504.395,-86.914,-23.926,0.000
1587072129.737,-8.301,140.137,-83.008,16.602,0.000
1587072129.741,-42.969,317.871,-105.957,20.020,0.000
1587072129.745,-20.996,-112.305,-118.164,-43.457,0.000
1587072129.749,23.926,-186.035,-92.285,-48.340,0.000
1587072129.753,10.742,241.211,-82.520,17.578,0.000
1587072129.757,-37.109,268.066,-86.426,31.250,0.000
1587072129.761,-41.016,-265.137,-89.844,-40.039,0.000
1587072129.765,8.301,-135.742,-91.797,-60.547,0.000
1587072129.769,20.020,439.941,-87.402,16.602,0.000
1587072129.773,-21.484,429.688,-91.797,46.387,0.000
1587072129.777,-37.598,-275.879,-110.352,3.906,0.000
1587072129.780,-28.809,-340.332,-90.332,-58.105,0.000
1587072129.784,-0.977,411.621,-76.172,-35.645,0.000
1587072129.788,-16.602,569.336,-96.680,39.062,0.000
1587072129.792,-49.805,-376.953,-135.254,20.508,0.000
1587072129.796,-42.480,-490.723,-101.562,-61.523,0.000
1587072129.800,-2.441,448.242,-71.777,-41.016,0.000
1587072129.804,4.395,513.184,-91.797,38.086,0.000
1587072129.808,-42.969,-125.000,-111.328,2.441,0.000
1587072129.812,-68.359,-153.320,-131.348,-83.008,0.000
1587072129.816,-25.391,378.906,-120.117,-64.453,0.000
1587072129.820,7.324,453.125,-88.867,18.066,0.000
1587072129.823,-26.855,-332.031,-78.613,33.691,0.000
1587072129.827,-52.734,-543.945,-61.035,-31.250,0.000
1587072129.831,-6.348,187.988,-39.551,-86.914,0.000
1587072129.835,29.785,457.520,-62.500,-31.738,0.000
1587072129.839,2.441,-367.188,-79.102,28.809,0.000
1587072129.843,-34.668,-523.438,-68.359,-28.320,0.000
1587072129.847,-31.738,83.496,-62.012,-74.219,0.000
1587072129.851,1.953,328.125,-61.035,-44.434,0.000
1587072129.855,-3.418,361.328,-81.055,13.184,0.000
1587072129.859,-42.480,233.398,-100.586,-1.953,0.000
1587072129.862,-42.969,94.727,-88.379,-52.734,0.000
1587072129.866,-0.977,68.359,-80.078,-41.504,0.000
1587072129.870,12.207,-45.410,-84.473,20.996,0.000
1587072129.874,-14.648,-223.145,-87.891,16.602,0.000
1587072129.878,-42.969,-91.309,-99.121,-48.828,0.000
1587072129.882,-12.695,-270.508,-114.258,-54.199,0.000
1587072129.886,13.672,-196.777,-67.871,-12.695,0.000
1587072129.890,-23.926,306.641,-68.848,-6.836,0.000
1587072129.894,-54.199,78.613,-111.328,-66.895,0.000
1587072129.898,-32.227,-170.410,-90.332,-73.730,0.000
1587072129.902,-1.953,230.469,-57.129,-21.484,0.000
1587072129.905,-15.137,395.508,-72.754,-9.277,0.000
1587072129.909,-41.016,-21.484,-112.793,-37.598,0.000
1587072129.913,-30.273,-352.051,-111.328,-64.941,0.000
1587072129.917,11.719,-79.590,-94.238,-55.176,0.000
1587072129.921,13.672,46.875,-86.914,-11.719,0.000
1587072129.925,-31.738,-312.012,-97.168,-28.320,0.000
1587072129.929,-24.902,-303.223,-102.539,-77.637,0.000
1587072129.933,9.766,218.750,-101.074,-74.219,0.000
1587072129.937,8.301,310.059,-83.008,-26.367,0.000
1587072129.941,-25.879,-213.379,-99.609,-14.160,0.000
1587072129.945,-20.996,-848.633,-113.770,-57.617,0.000
1587072129.948,11.230,-47.852,-68.848,-80.566,0.000
1587072129.952,11.719,697.754,-86.426,-21.973,0.000
1587072129.956,-19.043,183.105,-134.766,20.508,0.000
1587072129.960,2.930,-98.145,-108.398,3.418,0.000
1587072129.964,16.113,30.273,-66.895,-45.410,0.000
1587072129.968,-13.184,211.426,-86.914,-48.828,0.000
1587072129.972,-30.762,-146.973,-120.117,-0.977,0.000
1587072129.976,-67.383,-576.660,-93.750,-49.805,0.000
1587072129.980,-45.898,-94.238,-78.613,-103.516,0.000
1587072129.984,3.418,132.324,-102.051,-69.824,0.000
1587072129.987,-11.719,202.148,-105.469,-31.250,0.000
1587072129.991,-60.059,190.918,-101.074,-40.527,0.000
1587072129.995,-79.102,77.148,-88.867,-128.418,0.000
1587072129.999,-33.691,162.109,-74.707,-130.859,0.000
1587072130.003,-17.090,187.988,-76.172,-55.664,0.000
1587072130.007,-70.312,169.434,-76.172,-54.688,0.000
1587072130.011,-67.871,-131.836,-78.613,-94.727,0.000
1587072130.015,-12.695,-211.426,-90.332,-90.820,0.000
1587072130.019,-15.137,-111.816,-93.262,-57.617,0.000
1587072130.023,-45.898,40.039,-86.914,-37.598,0.000
1587072130.027,-78.125,-129.883,-77.637,-63.477,0.000
1587072130.030,-58.105,-449.707,-81.543,-115.234,0.000
1587072130.034,-13.672,-497.070,-71.777,-83.496,0.000
1587072130.038,-37.109,49.316,-73.730,-25.391,0.000
1587072130.042,-53.223,-112.305,-92.773,-44.922,0.000
1587072130.046,-21.484,-378.906,-92.285,-96.191,0.000
1587072130.050,3.418,256.348,-74.219,-69.824,0.000
1587072130.054,3.418,618.164,-50.781,0.488,0.000
1587072130.058,-30.762,79.102,-64.941,-21.484,0.000
1587072130.062,-53.223,-612.305,-81.055,-73.730,0.000
1587072130.066,-17.578,-391.113,-49.316,-62.012,0.000
1587072130.070,6.348,566.406,-47.852,-12.207,0.000
1587072130.073,-36.133,425.293,-91.797,1.953,0.000
1587072130.077,-60.059,-248.047,-93.750,-46.875,0.000
1587072130.081,-16.602,121.582,-66.406,-78.613,0.000
1587072130.085,12.695,709.473,-63.477,-30.273,0.000
1587072130.089,-15.137,439.941,-88.379,22.949,0.000
1587072130.093,-46.387,-219.238,-117.676,-18.555,0.000
1587072130.097,-37.109,-100.098,-106.445,-66.895,0.000
1587072130.101,-5.371,364.258,-87.891,-24.902,0.000
1587072130.105,-11.230,116.699,-108.887,31.738,0.000
1587072130.109,-31.738,-765.137,-130.371,23.438,0.000
1587072130.112,-37.598,-339.844,-81.543,-39.062,0.000
1587072130.116,-9.766,474.121,-50.293,-48.340,0.000
1587072130.120,8.301,390.137,-67.871,17.578,0.000
1587072130.124,-22.949,-110.352,-82.520,26.855,0.000
1587072130.128,-44.922,-94.238,-58.105,-51.270,0.000
1587072130.132,-5.371,401.855,-45.898,-61.035,0.000
1587072130.136,27.832,386.230,-83.984,22.461,0.000
1587072130.140,-0.977,187.012,-103.027,39.551,0.000
1587072130.144,-40.527,159.180,-67.871,-48.828,0.000
1587072130.148,1.953,360.840,-30.273,-105.957,0.000
1587072130.152,23.926,168.945,-36.133,-47.852,0.000
1587072130.155,-30.762,-260.254,-56.152,-11.230,0.000
1587072130.159,-60.059,-190.918,-56.641,-43.457,0.000
1587072130.163,-50.293,129.395,-47.852,-92.285,0.000
1587072130.167,-9.277,3.418,-64.941,-69.336,0.000
1587072130.171,3.418,147.461,-62.988,2.930,0.000
1587072130.175,-31.738,218.750,-74.707,-4.395,0.000
1587072130.179,-32.715,-32.715,-95.703,-60.547,0.000
1587072130.183,8.789,26.367,-87.402,-54.199,0.000
1587072130.187,28.320,426.270,-86.914,22.949,0.000
1587072130.191,-4.883,411.621,-94.238,41.992,0.000
1587072130.195,-26.855,-111.816,-85.449,-28.320,0.000
1587072130.198,-5.859,-325.684,-75.684,-52.734,0.000
1587072130.202,15.625,142.090,-77.148,9.277,0.000
1587072130.206,-11.719,380.371,-83.008,40.527,0.000
1587072130.210,-34.180,-99.609,-83.984,-0.977,0.000
1587072130.214,7.324,-571.777,-72.754,-36.133,0.000
1587072130.218,25.391,46.387,-67.871,-12.695,0.000
1587072130.222,3.906,228.027,-85.938,35.645,0.000
1587072130.226,-36.621,-288.574,-94.727,-15.137,0.000
1587072130.230,-27.832,-202.637,-82.031,-89.844,0.000
1587072130.234,22.949,357.422,-70.312,-50.781,0.000
1587072130.237,7.324,578.125,-90.820,22.949,0.000
1587072130.241,-38.086,-39.062,-113.770,23.438,0.000
1587072130.245,-29.785,-472.168,-94.238,-30.273,0.000
1587072130.249,-3.906,5.371,-74.219,-46.387,0.000
1587072130.253,-3.906,562.500,-89.355,3.418,0.000
1587072130.257,-35.156,-166.016,-139.160,12.207,0.000
1587072130.261,-46.387,-655.273,-129.395,-25.391,0.000
1587072130.265,-12.207,198.730,-86.426,-55.176,0.000
1587072130.269,19.531,545.410,-74.219,-21.484,0.000
1587072130.273,-11.719,5.371,-91.797,19.531,0.000
1587072130.277,-55.176,-337.891,-101.562,-12.695,0.000
1587072130.280,-20.996,63.477,-89.844,-73.242,0.000
1587072130.284,40.039,450.195,-93.262,-37.109,0.000
1587072130.288,0.000,115.723,-124.023,18.555,0.000
1587072130.292,-51.270,-449.219,-129.395,-3.418,0.000
1587072130.296,-39.062,-296.875,-93.262,-40.527,0.000
1587072130.300,2.930,169.434,-99.609,-19.043,0.000
1587072130.304,15.625,-377.441,-136.230,48.340,0.000
1587072130.308,-17.090,-349.609,-105.469,34.668,0.000
1587072130.312,-5.371,-315.918,-85.449,-12.207,0.000
1587072130.316,26.367,-139.648,-87.891,-31.738,0.000
1587072130.320,12.695,418.945,-85.938,6.348,0.000
1587072130.323,-17.090,421.875,-90.820,31.250,0.000
1587072130.327,-18.066,169.922,-95.703,-18.066,0.000
1587072130.331,33.203,11.719,-78.613,-39.062,0.000
1587072130.335,62.012,48.828,-73.730,27.832,0.000
1587072130.339,17.090,-54.199,-103.027,71.777,0.000
1587072130.343,-28.809,-309.570,-124.023,26.367,0.000
1587072130.347,-4.395,-588.379,-130.371,-30.273,0.000
1587072130.351,43.457,-358.398,-92.285,-9.277,0.000
1587072130.355,18.555,437.500,-85.449,34.180,0.000
1587072130.359,-19.043,190.430,-116.699,13.184,0.000
1587072130.362,-6.836,-203.125,-109.375,-36.133,0.000
1587072130.366,24.902,329.590,-83.984,-31.250,0.000
1587072130.370,23.438,649.414,-79.102,48.828,0.000
1587072130.374,-2.441,134.766,-103.516,47.852,0.000
1587072130.378,-24.902,-365.234,-93.262,-44.922,0.000
1587072130.382,-2.441,147.461,-62.500,-35.156,0.000
1587072130.386,18.555,376.953,-71.289,34.180,0.000
1587072130.390,-13.672,-208.496,-84.961,34.180,0.000
1587072130.394,-36.133,-643.066,-78.125,-19.531,0.000
1587072130.398,-14.648,49.316,-70.312,-44.922,0.000
1587072130.402,26.855,632.324,-85.938,-2.930,0.000
1587072130.405,27.832,-9.766,-104.004,45.410,0.000
1587072130.409,0.000,-646.973,-88.379,24.902,0.000
1587072130.413,-4.883,-76.660,-78.613,-57.129,0.000
1587072130.417,18.555,416.504,-89.844,-58.594,0.000
1587072130.421,18.555,214.844,-80.078,18.555,0.000
1587072130.425,-13.184,-3.418,-78.125,2.930,0.000
1587072130.429,-28.320,23.438,-100.586,-68.848,0.000
1587072130.433,-5.859,170.898,-129.883,-72.754,0.000
1587072130.437,8.301,-87.891,-138.672,11.230,0.000
1587072130.441,-42.480,-538.086,-110.840,8.789,0.000
1587072130.445,-54.688,-41.016,-103.027,-70.801,0.000
1587072130.448,4.883,278.809,-122.559,-66.895,0.000
1587072130.452,19.531,167.969,-105.957,-8.301,0.000
1587072130.456,-24.902,250.977,-84.473,9.766,0.000
1587072130.460,-47.363,190.430,-83.984,-29.297,0.000
1587072130.464,5.371,149.902,-75.684,-44.434,0.000
1587072130.468,27.832,177.734,-70.801,15.137,0.000
1587072130.472,-12.695,377.930,-87.402,31.250,0.000
1587072130.476,-40.527,160.645,-89.844,-16.602,0.000
1587072130.480,-18.066,-275.879,-88.379,-48.828,0.000
1587072130.484,20.020,-668.945,-102.051,-19.531,0.000
1587072130.487,30.273,-72.266,-93.262,33.691,0.000
1587072130.491,12.695,279.297,-87.891,17.090,0.000
1587072130.495,-11.719,-149.902,-85.449,-41.504,0.000
1587072130.499,22.949,-93.750,-56.152,-50.781,0.000
1587072130.503,50.781,471.191,-49.316,32.227,0.000
1587072130.507,-4.883,168.945,-82.520,58.594,0.000
1587072130.511,-28.320,-397.461,-74.707,-17.578,0.000
1587072130.515,5.371,18.555,-54.199,-52.246,0.000
1587072130.519,25.391,542.480,-66.895,-6.836,0.000
1587072130.523,12.695,394.531,-92.285,25.391,0.000
1587072130.527,17.090,-344.238,-114.746,-16.113,0.000
1587072130.530,3.906,-472.656,-99.609,-68.359,0.000
1587072130.534,0.488,362.793,-83.008,-41.504,0.000
1587072130.538,16.113,568.359,-102.051,63.477,0.000
1587072130.542,3.906,-394.531,-121.582,65.918,0.000
1587072130.546,-28.320,-639.160,-90.332,-66.406,0.000
1587072130.550,-27.832,295.898,-57.617,-97.168,0.000
1587072130.554,-17.578,563.477,-83.008,10.254,0.000
1587072130.558,-56.641,-32.715,-111.328,10.254,0.000
1587072130.562,-59.082,-21.973,-116.699,-77.637,0.000
1587072130.566,-7.812,283.691,-107.422,-61.523,0.000
1587072130.570,4.395,157.715,-113.281,8.301,0.000
1587072130.573,-33.203,-321.289,-112.305,19.043,0.000
1587072130.577,-45.410,-269.043,-75.195,-46.875,0.000
1587072130.581,-0.488,324.219,-75.195,-88.867,0.000
1587072130.585,17.090,336.914,-97.168,-42.969,0.000
1587072130.589,-13.672,-316.406,-105.957,18.066,0.000
1587072130.593,-41.504,-423.340,-101.562,-7.812,0.000
1587072130.597,-38.086,140.625,-95.215,-73.730,0.000
1587072130.601,-2.441,179.199,-124.023,-54.688,0.000
1587072130.605,-13.184,-256.348,-117.188,8.301,0.000
1587072130.609,-62.500,-129.395,-106.445,-29.785,0.000
1587072130.612,-53.711,48.340,-116.699,-83.008,0.000
1587072130.616,-13.184,112.793,-110.352,-32.715,0.000
1587072130.620,5.371,1.465,-99.609,44.434,0.000
1587072130.624,-37.598,-261.230,-92.285,5.371,0.000
1587072130.628,-68.848,-255.859,-85.938,-66.406,0.000
1587072130.632,-24.414,-403.320,-108.398,-54.688,0.000
1587072130.636,-1.953,-430.664,-105.957,5.371,0.000
1587072130.640,-30.762,197.754,-91.797,-2.930,0.000
1587072130.644,-67.383,48.340,-101.074,-53.711,0.000
1587072130.648,-45.410,-125.488,-86.426,-86.914,0.000
1587072130.652,-11.719,410.156,-71.289,-47.363,0.000
1587072130.655,-45.898,514.648,-82.031,-8.789,0.000
1587072130.659,-83.496,34.668,-93.262,-46.875,0.000
1587072130.663,-50.781,-204.590,-89.844,-87.402,0.000
1587072130.667,9.277,8.301,-95.703,-52.734,0.000
1587072130.671,-12.207,224.121,-101.074,-3.906,0.000
1587072130.675,-53.711,-2.930,-94.727,-10.742,0.000
1587072130.679,-37.598,-769.043,-89.355,-52.734,0.000
1587072130.683,-16.602,-250.977,-82.520,-54.688,0.000
1587072130.687,-2.930,250.977,-105.469,9.277,0.000
1587072130.691,-18.555,-183.105,-102.539,19.043,0.000
1587072130.695,-31.738,-171.875,-73.242,-45.898,0.000
1587072130.698,-7.812,343.262,-74.707,-54.688,0.000
1587072130.702,18.555,589.355,-93.750,6.348,0.000
1587072130.706,-11.230,185.547,-109.863,30.762,0.000
1587072130.710,-47.363,-54.199,-75.195,-11.719,0.000
1587072130.714,-25.391,-21.973,-67.383,-71.777,0.000
1587072130.718,3.418,192.383,-87.891,-44.434,0.000
1587072130.722,-5.859,-182.129,-83.496,12.695,0.000
1587072130.726,-53.711,-633.301,-59.570,-15.137,0.000
1587072130.730,-25.879,58.594,-69.824,-85.449,0.000
1587072130.734,31.738,436.523,-90.820,-62.500,0.000
1587072130.737,1.465,167.480,-64.453,-7.324,0.000
1587072130.741,-46.875,-183.105,-41.016,-29.785,0.000
1587072130.745,-62.012,-92.285,-45.898,-102.539,0.000
1587072130.749,-15.625,316.406,-65.430,-99.121,0.000
1587072130.753,1.465,348.633,-62.500,-2.441,0.000
1587072130.757,-28.320,-5.371,-74.219,1.953,0.000
1587072130.761,-29.297,-301.270,-87.402,-68.359,0.000
1587072130.765,-4.395,-236.328,-79.590,-97.168,0.000
1587072130.769,4.883,-477.051,-66.406,-31.250,0.000
1587072130.773,-26.367,-42.969,-43.457,13.184,0.000
1587072130.777,-35.156,42.480,-65.430,-38.574,0.000
1587072130.780,-5.371,-264.160,-72.754,-88.379,0.000
1587072130.784,7.324,293.457,-47.852,-50.781,0.000
1587072130.788,-14.648,508.301,-59.570,19.043,0.000
1587072130.792,-40.039,229.980,-82.031,-11.230,0.000
1587072130.796,-32.227,63.965,-89.355,-69.824,0.000
1587072130.800,3.418,137.695,-95.215,-51.758,0.000
1587072130.804,-10.254,337.891,-108.887,1.953,0.000
1587072130.808,-21.973,-86.914,-123.535,-3.418,0.000
1587072130.812,-14.648,-749.023,-133.301,-61.523,0.000
1587072130.816,-14.160,-567.871,-118.164,-65.918,0.000
1587072130.820,9.766,405.762,-95.215,-15.625,0.000
1587072130.823,-12.695,381.836,-105.469,23.438,0.000
1587072130.827,-47.852,-358.398,-109.375,-41.016,0.000
1587072130.831,-11.719,-59.082,-85.449,-105.957,0.000
1587072130.835,7.812,511.230,-83.496,-31.738,0.000
1587072130.839,-19.043,246.582,-114.746,2.930,0.000
1587072130.843,-32.715,-402.344,-122.070,-73.730,0.000
1587072130.847,-39.062,-89.355,-92.285,-127.930,0.000
1587072130.851,-8.301,508.789,-87.891,-79.102,0.000
1587072130.855,-1.465,77.148,-118.652,3.906,0.000
1587072130.859,-36.133,-843.750,-119.141,3.418,0.000
1587072130.862,-49.316,-409.180,-80.078,-80.566,0.000
1587072130.866,-25.391,550.781,-84.473,-104.492,0.000
1587072130.870,-15.137,395.020,-103.516,-29.785,0.000
1587072130.874,-42.969,-333.496,-100.586,-25.391,0.000
1587072130.878,-52.246,-145.020,-75.195,-97.656,0.000
1587072130.882,-26.855,370.117,-87.402,-98.633,0.000
1587072130.886,0.000,351.074,-135.742,-34.180,0.000
1587072130.890,-29.785,62.012,-115.723,-27.344,0.000
1587072130.894,-74.219,-85.449,-92.285,-76.172,0.000
1587072130.898,-18.555,131.836,-98.145,-96.680,0.000
1587072130.902,27.344,71.777,-125.977,-35.156,0.000
1587072130.905,-17.090,-230.469,-116.699,22.461,0.000
1587072130.909,-49.805,-52.246,-70.312,-6.836,0.000
1587072130.913,-29.297,90.332,-58.105,-78.125,0.000
1587072130.917,8.789,-155.273,-56.641,-48.828,0.000
1587072130.921,2.441,-80.078,-41.504,17.090,0.000
1587072130.925,-37.109,148.438,-63.965,1.465,0.000
1587072130.929,-37.598,40.039,-69.824,-50.293,0.000
1587072130.933,1.465,18.066,-53.223,-61.523,0.000
1587072130.937,19.043,335.449,-48.828,4.883,0.000
1587072130.941,6.348,339.355,-50.293,17.578,0.000
1587072130.945,-27.344,-114.746,-63.965,-43.945,0.000
1587072130.948,-24.414,-346.191,-61.035,-66.895,0.000
1587072130.952,7.324,61.035,-40.039,6.836,0.000
1587072130.956,-17.090,416.016,-46.387,24.414,0.000
1587072130.960,-51.270,-25.391,-85.938,-33.203,0.000
1587072130.964,-31.738,-658.691,-99.609,-67.871,0.000
1587072130.968,-3.906,-104.980,-79.590,-19.043,0.000
1587072130.972,-3.418,244.141,-75.684,49.805,0.000
1587072130.976,-18.066,-209.473,-96.191,-8.301,0.000
1587072130.980,3.906,-151.855,-83.984,-60.059,0.000
1587072130.984,30.273,488.770,-67.871,-34.180,0.000
1587072130.987,6.836,566.895,-81.055,10.742,0.000
1587072130.991,-25.391,-121.582,-112.305,11.230,0.000
1587072130.995,-6.836,-500.488,-112.305,-23.438,0.000
1587072130.999,22.461,-59.082,-82.031,-29.785,0.000
1587072131.003,-1.953,512.695,-85.938,10.254,0.000
1587072131.007,-44.922,-207.520,-124.512,18.555,0.000
1587072131.011,-46.387,-813.477,-102.539,-40.527,0.000
1587072131.015,-14.648,0.000,-78.613,-73.730,0.000
1587072131.019,25.879,423.340,-92.285,-1.953,0.000
1587072131.023,-6.836,-23.438,-95.703,45.410,0.000
1587072131.027,-64.941,-96.191,-81.055,-22.461,0.000
1587072131.030,-33.691,196.289,-81.543,-87.891,0.000
1587072131.034,9.277,240.723,-100.098,-65.430,0.000
1587072131.038,-10.254,89.844,-113.770,-4.395,0.000
1587072131.042,-38.574,-310.059,-95.215,5.859,0.000
1587072131.046,-5.859,-277.344,-73.242,-69.824,0.000
1587072131.050,31.738,160.156,-103.516,-95.215,0.000
1587072131.054,-8.301,-127.930,-100.098,-1.953,0.000
1587072131.058,-40.527,-152.832,-81.543,3.906,0.000
1587072131.062,-30.273,-272.461,-89.355,-74.707,0.000
1587072131.066,-8.789,-176.758,-91.309,-74.219,0.000
1587072131.070,4.883,171.875,-87.891,2.930,0.000
1587072131.073,-43.457,330.566,-97.168,-6.836,0.000
1587072131.077,-66.895,165.039,-127.930,-78.613,0.000
1587072131.081,-22.461,-250.488,-128.906,-97.656,0.000
1587072131.085,7.324,-276.367,-87.402,-49.805,0.000
1587072131.089,-11.719,-133.789,-85.938,9.277,0.000
1587072131.093,-43.457,-374.512,-109.863,-22.949,0.000
1587072131.097,-20.508,-666.992,-108.887,-74.707,0.000
1587072131.101,9.766,-367.676,-93.750,-33.691,0.000
1587072131.105,-9.277,473.145,-113.770,39.551,0.000
1587072131.109,-38.086,314.941,-131.836,12.695,0.000
1587072131.112,-31.250,-177.734,-119.141,-63.965,0.000
1587072131.116,22.949,302.246,-91.797,-42.969,0.000
1587072131.120,18.555,678.711,-85.449,19.043,0.000
1587072131.124,-40.039,216.309,-103.027,20.996,0.000
1587072131.128,-46.875,-221.191,-100.586,-52.734,0.000
1587072131.132,-22.461,213.379,-76.172,-67.383,0.000
1587072131.136,-1.953,314.941,-94.727,22.949,0.000
1587072131.140,-14.160,-190.918,-112.793,41.504,0.000
1587072131.144,-23.438,-689.941,-97.656,-1.953,0.000
1587072131.148,0.977,-294.434,-70.801,-46.387,0.000
1587072131.152,1.953,257.324,-66.895,-26.855,0.000
1587072131.155,-25.391,-15.137,-105.957,23.926,0.000
1587072131.159,-51.270,-710.938,-116.699,-18.066,0.000
1587072131.163,-20.508,-164.062,-70.312,-83.008,0.000
1587072131.167,10.254,526.855,-72.754,-27.344,0.000
1587072131.171,-5.859,304.688,-110.840,33.691,0.000
1587072131.175,-32.715,65.430,-91.309,-3.906,0.000
1587072131.179,-38.574,12.207,-72.754,-49.805,0.000
1587072131.183,3.906,224.121,-76.660,-42.480,0.000
1587072131.187,16.602,-22.461,-85.449,46.875,0.000
1587072131.191,-30.273,-510.254,-78.125,74.219,0.000
1587072131.195,-44.922,-43.945,-90.820,-11.230,0.000
1587072131.198,11.230,277.832,-100.586,-23.926,0.000
1587072131.202,34.180,212.402,-82.520,48.828,0.000
1587072131.206,-3.906,162.598,-87.891,56.152,0.000
1587072131.210,-40.039,-76.660,-98.145,-19.531,0.000
1587072131.214,-21.484,-51.270,-88.867,-64.941,0.000
1587072131.218,15.625,-64.941,-89.844,-28.320,0.000
1587072131.222,-11.230,247.070,-90.332,11.719,0.000
1587072131.226,-46.875,281.250,-106.445,-1.953,0.000
1587072131.230,-31.250,-210.449,-107.422,-47.852,0.000
1587072131.234,15.137,-625.977,-84.961,-20.508,0.000
1587072131.237,24.414,7.812,-67.383,49.805,0.000
1587072131.241,-58.594,337.891,-82.031,8.301,0.000
1587072131.245,-76.172,-147.949,-97.656,-59.082,0.000
1587072131.249,-7.812,-268.555,-84.961,-37.109,0.000
1587072131.253,-1.465,361.816,-64.453,20.996,0.000
1587072131.257,-34.180,397.949,-84.961,14.648,0.000
1587072131.261,-37.109,-258.301,-117.676,-41.504,0.000
1587072131.265,-12.207,-232.422,-106.445,-69.336,0.000
1587072131.269,8.789,217.773,-89.844,-27.832,0.000
1587072131.273,-13.672,341.797,-94.238,10.254,0.000
1587072131.277,-33.203,-229.980,-107.422,-12.695,0.000
1587072131.280,-6.348,-440.430,-79.590,-41.992,0.000
1587072131.284,22.461,297.363,-50.293,-0.488,0.000
1587072131.288,0.000,534.668,-67.383,52.734,0.000
1587072131.292,-27.344,-430.176,-101.562,40.039,0.000
1587072131.296,-30.273,-666.504,-67.871,-15.137,0.000
1587072131.300,-9.766,430.176,-45.898,-7.324,0.000
1587072131.304,12.695,442.383,-77.637,48.340,0.000
1587072131.308,-35.645,-316.895,-82.031,48.828,0.000
1587072131.312,-50.781,-259.766,-50.781,12.695,0.000
1587072131.316,-0.977,221.191,-27.832,-24.902,0.000
1587072131.320,12.207,353.027,-59.082,6.348,0.000
1587072131.323,-30.762,-227.539,-79.102,40.039,0.000
1587072131.327,-46.387,-506.348,-68.359,-6.348,0.000
1587072131.331,18.555,-39.062,-66.895,-42.480,0.000
1587072131.335,33.691,348.633,-99.609,-2.930,0.000
1587072131.339,-17.578,-531.250,-135.254,52.734,0.000
1587072131.343,-54.199,-679.199,-94.238,8.301,0.000
1587072131.347,-49.805,125.977,-54.199,-50.293,0.000
1587072131.351,-4.883,381.836,-62.500,-7.324,0.000
1587072131.355,-4.883,426.758,-74.707,55.176,0.000
1587072131.359,-35.645,257.812,-83.496,43.945,0.000
1587072131.362,-34.180,115.234,-75.684,-19.531,0.000
1587072131.366,1.953,176.758,-69.824,-34.668,0.000
1587072131.370,23.926,11.230,-92.285,36.133,0.000
1587072131.374,-31.250,-273.438,-101.074,18.066,0.000
1587072131.378,-51.270,-155.273,-80.078,-74.707,0.000
1587072131.382,-11.230,-312.012,-66.895,-84.473,0.000
1587072131.386,-10.254,-218.262,-66.406,-26.855,0.000
1587072131.390,-32.715,168.457,-82.031,2.441,0.000
1587072131.394,-40.039,-13.184,-90.332,-46.875,0.000
1587072131.398,-16.113,-502.441,-105.957,-78.125,0.000
1587072131.402,32.715,-134.277,-94.238,-4.395,0.000
1587072131.405,30.273,504.883,-103.516,33.691,0.000
1587072131.409,-36.133,83.496,-129.883,-48.828,0.000
1587072131.413,-74.707,-216.797,-120.605,-118.652,0.000
1587072131.417,-55.176,-81.055,-117.188,-102.051,0.000
1587072131.421,-67.871,99.609,-104.980,-72.754,0.000
1587072131.425,-118.164,-31.250,-113.281,-75.684,0.000
1587072131.429,-104.980,-740.723,-130.371,-108.887,0.000
1587072131.433,-74.707,-205.566,-107.422,-136.719,0.000
1587072131.437,-71.777,188.965,-123.535,-90.332,0.000
1587072131.441,-92.773,-197.754,-130.371,-52.734,0.000
1587072131.445,-100.586,-250.977,-84.961,-111.328,0.000
1587072131.448,-62.988,253.906,-70.801,-117.188,0.000
1587072131.452,-26.855,666.016,-81.055,-23.438,0.000
1587072131.456,-42.969,263.672,-91.797,-7.324,0.000
1587072131.460,-76.660,-56.641,-83.008,-67.871,0.000
1587072131.464,-49.805,-85.938,-77.148,-97.168,0.000
1587072131.468,-16.602,88.379,-84.961,-53.223,0.000
1587072131.472,-35.156,-115.234,-91.797,15.137,0.000
1587072131.476,-74.219,-570.312,-79.102,-22.949,0.000
1587072131.480,-78.125,115.723,-82.520,-102.051,0.000
1587072131.484,-26.367,578.613,-103.516,-100.098,0.000
1587072131.487,-16.113,256.348,-99.121,-41.016,0.000
1587072131.491,-56.152,67.871,-68.359,-39.062,0.000
1587072131.495,-64.941,101.074,-52.734,-80.566,0.000
1587072131.499,-34.668,109.863,-64.453,-96.680,0.000
1587072131.503,0.488,139.160,-82.520,-49.316,0.000
1587072131.507,-43.945,106.934,-107.910,-15.625,0.000
1587072131.511,-79.102,-250.977,-108.398,-65.430,0.000
1587072131.515,-23.926,-386.719,-72.266,-78.125,0.000
1587072131.519,13.672,-639.160,-57.129,4.883,0.000
1587072131.523,-47.852,-175.781,-46.875,46.875,0.000
1587072131.527,-53.711,-23.926,-61.035,-3.906,0.000
1587072131.530,-20.508,-283.691,-62.988,-59.570,0.000
1587072131.534,6.348,208.984,-72.266,-20.996,0.000
1587072131.538,14.648,457.520,-96.191,46.387,0.000
1587072131.542,-21.484,172.363,-94.727,28.320,0.000
1587072131.546,-13.184,-179.688,-94.238,-23.438,0.000
1587072131.550,3.418,247.559,-81.055,-63.477,0.000
1587072131.554,-12.695,557.617,-79.102,-24.414,0.000
1587072131.558,-31.738,6.836,-104.980,-0.488,0.000
1587072131.562,-33.691,-666.504,-110.840,-51.758,0.000
1587072131.566,-21.484,-604.004,-62.988,-69.336,0.000
1587072131.570,0.000,287.598,-39.062,1.953,0.000
1587072131.573,-36.621,265.625,-81.055,2.930,0.000
1587072131.577,-67.383,-426.758,-104.004,-49.316,0.000
1587072131.581,-38.086,-63.477,-75.684,-71.289,0.000
1587072131.585,-15.625,541.016,-83.008,-43.457,0.000
1587072131.589,-22.949,322.754,-131.836,1.953,0.000
1587072131.593,-59.570,-272.461,-136.230,-30.762,0.000
1587072131.597,-40.527,-24.902,-93.750,-107.422,0.000
1587072131.601,8.789,423.340,-81.543,-79.102,0.000
1587072131.605,-11.719,76.172,-85.938,-6.836,0.000
1587072131.609,-45.898,-299.805,-78.125,-15.625,0.000
1587072131.612,-58.594,-80.566,-97.168,-96.680,0.000
1587072131.616,-28.809,276.855,-106.934,-95.703,0.000
1587072131.620,1.465,83.984,-97.168,-0.977,0.000
1587072131.624,-26.855,-694.336,-107.910,-2.441,0.000
1587072131.628,-36.621,-349.121,-103.516,-71.777,0.000
1587072131.632,3.906,342.773,-93.262,-86.914,0.000
1587072131.636,8.301,204.102,-102.539,-35.156,0.000
1587072131.640,-42.969,-87.891,-80.078,-22.461,0.000
1587072131.644,-72.754,23.438,-57.129,-79.102,0.000
1587072131.648,-30.762,270.996,-56.641,-93.262,0.000
1587072131.652,33.691,-14.160,-72.754,-8.301,0.000
1587072131.655,20.996,-364.258,-71.777,39.551,0.000
1587072131.659,-33.203,-69.824,-59.570,-15.137,0.000
1587072131.663,-46.875,155.273,-70.801,-83.984,0.000
1587072131.667,-5.859,-95.215,-95.215,-37.109,0.000
1587072131.671,-6.348,74.219,-69.336,41.504,0.000
1587072131.675,-47.852,101.562,-64.453,17.578,0.000
1587072131.679,-32.227,-284.180,-87.402,-52.246,0.000
1587072131.683,-8.789,-73.242,-88.379,-31.250,0.000
1587072131.687,-16.602,342.285,-88.867,47.852,0.000
1587072131.691,-33.203,192.871,-89.355,27.832,0.000
1587072131.695,-33.203,-157.227,-84.473,-36.133,0.000
1587072131.698,-8.789,-295.898,-71.777,-51.758,0.000
1587072131.702,-4.395,34.668,-42.969,24.902,0.000
1587072131.706,-23.926,333.008,-43.945,60.547,0.000
1587072131.710,-33.691,-97.656,-57.617,-4.395,0.000
1587072131.714,-16.602,-859.375,-58.594,-31.250,0.000
1587072131.718,11.719,-240.723,-30.762,-12.207,0.000
1587072131.722,-12.695,530.762,-45.898,12.695,0.000
1587072131.726,-55.664,30.762,-75.195,-20.020,0.000
1587072131.730,-35.645,-83.496,-58.105,-89.355,0.000
1587072131.734,5.371,231.445,-64.941,-61.523,0.000
1587072131.737,0.000,72.266,-78.613,13.672,0.000
1587072131.741,-27.832,-500.488,-56.152,-3.418,0.000
1587072131.745,-34.180,-801.270,-48.340,-66.895,0.000
1587072131.749,2.441,-273.926,-39.062,-73.730,0.000
1587072131.753,20.996,453.613,-29.297,-5.371,0.000
1587072131.757,-28.809,-186.035,-66.406,20.996,0.000
1587072131.761,-61.523,-697.754,-56.641,-36.621,0.000
1587072131.765,-34.668,262.695,-45.898,-80.078,0.000
1587072131.769,-6.348,618.652,-70.801,-21.973,0.000
1587072131.773,-24.414,135.254,-84.473,15.625,0.000
1587072131.777,-64.941,25.879,-78.613,-37.109,0.000
1587072131.780,-41.992,264.648,-60.547,-67.383,0.000
1587072131.784,19.043,451.172,-77.637,-27.832,0.000
1587072131.788,11.230,70.801,-110.840,27.832,0.000
1587072131.792,-20.996,-368.652,-102.051,5.859,0.000
1587072131.796,-19.043,-307.617,-69.824,-48.828,0.000
1587072131.800,6.348,-81.543,-64.941,-43.945,0.000
1587072131.804,-5.859,-416.504,-89.355,19.043,0.000
1587072131.808,-41.016,-297.852,-86.426,5.371,0.000
1587072131.812,-39.062,-186.523,-76.660,-51.758,0.000
1587072131.816,-10.742,-126.465,-60.547,-61.523,0.000
1587072131.820,-2.930,333.496,-49.316,-19.531,0.000
1587072131.823,-39.551,373.535,-63.965,-2.930,0.000
1587072131.827,-68.359,66.895,-69.824,-57.617,0.000
1587072131.831,-34.180,-114.258,-60.547,-92.285,0.000
1587072131.835,-12.207,211.914,-52.246,-50.293,0.000
1587072131.839,-26.367,62.500,-72.754,-14.160,0.000
1587072131.843,-53.711,-320.312,-79.590,-54.688,0.000
1587072131.847,-35.156,-541.016,-71.289,-108.398,0.000
1587072131.851,17.090,-547.363,-46.387,-81.055,0.000
1587072131.855,-8.301,335.449,-51.270,-12.695,0.000
1587072131.859,-54.688,285.156,-88.867,-17.578,0.000
1587072131.862,-46.875,-179.688,-91.309,-94.727,0.000
1587072131.866,-2.441,258.789,-60.547,-100.098,0.000
1587072131.870,-5.371,684.082,-35.156,-26.855,0.000
1587072131.874,-55.176,286.621,-49.805,-17.578,0.000
1587072131.878,-49.805,-243.652,-68.359,-85.938,0.000
1587072131.882,-6.348,174.316,-51.270,-115.723,0.000
1587072131.886,-2.930,338.867,-51.270,-38.574,0.000
1587072131.890,-41.016,-105.469,-69.824,-5.371,0.000
1587072131.894,-46.387,-436.523,-70.312,-69.824,0.000
1587072131.898,-28.809,-30.762,-48.340,-91.797,0.000
1587072131.902,-4.395,486.328,-44.922,-40.039,0.000
1587072131.905,-4.883,-16.113,-86.914,14.648,0.000
1587072131.909,-44.922,-843.750,-104.980,-26.855,0.000
1587072131.913,-53.711,-221.191,-62.988,-96.191,0.000
1587072131.917,-22.949,662.598,-61.035,-67.383,0.000
1587072131.921,-13.672,395.996,-100.586,-6.836,0.000
1587072131.925,-42.480,-58.594,-80.566,-11.230,0.000
1587072131.929,-46.387,-17.578,-61.035,-57.617,0.000
1587072131.933,10.742,199.219,-71.289,-49.316,0.000
1587072131.937,42.969,-43.457,-80.078,45.410,0.000
1587072131.941,-1.953,-619.629,-73.730,61.523,0.000
1587072131.945,-28.809,-281.250,-62.012,-26.367,0.000
1587072131.948,14.648,243.164,-55.176,-41.992,0.000
1587072131.952,44.434,272.461,-72.754,28.320,0.000
1587072131.956,7.324,188.965,-98.633,65.918,0.000
1587072131.960,-21.973,35.645,-103.027,-9.277,0.000
1587072131.964,-4.395,-7.812,-104.980,-34.668,0.000
1587072131.968,30.273,-18.555,-96.191,30.273,0.000
1587072131.972,4.395,175.781,-86.426,52.246,0.000
1587072131.976,-37.598,144.531,-96.191,20.020,0.000
1587072131.980,-25.391,-277.344,-99.121,-28.320,0.000
1587072131.984,5.859,-751.465,-102.539,-18.555,0.000
1587072131.987,-6.348,-128.418,-75.684,26.367,0.000
1587072131.991,-49.805,304.199,-76.660,17.090,0.000
1587072131.995,-56.152,-256.348,-93.750,-37.109,0.000
1587072131.999,-9.277,-360.840,-65.430,-20.996,0.000
1587072132.003,13.184,289.551,-69.336,43.457,0.000
1587072132.007,-34.668,281.738,-113.281,42.480,0.000
1587072132.011,-49.805,-286.621,-121.094,-4.883,0.000
1587072132.015,-0.977,-87.891,-72.754,-25.879,0.000
1587072132.019,28.809,621.582,-57.129,19.531,0.000
1587072132.023,-2.441,370.605,-91.309,59.570,0.000
1587072132.027,-45.410,-418.945,-84.961,17.578,0.000
1587072132.030,-20.996,-437.988,-70.801,-31.738,0.000
1587072132.034,6.348,215.820,-59.082,-2.930,0.000
1587072132.038,-2.930,514.648,-54.688,46.875,0.000
1587072132.042,-11.719,-455.078,-93.262,53.711,0.000
1587072132.046,-15.625,-953.613,-69.824,-7.812,0.000
1587072132.050,8.789,164.551,-30.762,-35.156,0.000
1587072132.054,15.625,513.672,-57.617,26.855,0.000
1587072132.058,-20.996,-212.402,-82.031,33.203,0.000
1587072132.062,-27.832,-246.582,-89.355,-37.109,0.000
1587072132.066,9.277,303.711,-64.453,-56.152,0.000
1587072132.070,14.648,503.906,-42.969,21.484,0.000
1587072132.073,-27.344,-139.648,-35.645,45.410,0.000
1587072132.077,-50.293,-488.281,-22.461,-22.461,0.000
1587072132.081,-34.180,28.809,-30.273,-56.641,0.000
1587072132.085,-6.836,251.953,-57.617,1.953,0.000
1587072132.089,-16.113,-659.668,-95.703,35.156,0.000
1587072132.093,-59.082,-724.609,-78.613,-29.785,0.000
1587072132.097,-38.086,116.699,-60.547,-77.637,0.000
1587072132.101,1.953,224.121,-83.496,-41.016,0.000
1587072132.105,-20.996,179.199,-76.172,0.977,0.000
1587072132.109,-57.129,196.777,-98.145,-23.926,0.000
1587072132.112,-50.293,235.352,-106.934,-66.895,0.000
1587072132.116,-8.789,225.586,-97.656,-61.035,0.000
1587072132.120,2.930,56.152,-96.191,-25.879,0.000
1587072132.124,-17.578,-107.910,-91.797,3.418,0.000
1587072132.128,1.465,-45.410,-79.590,-18.066,0.000
1587072132.132,17.578,-178.711,-110.840,-78.613,0.000
1587072132.136,-30.273,16.113,-122.070,-65.430,0.000
1587072132.140,-65.918,272.461,-108.398,-41.504,0.000
1587072132.144,-74.219,-274.414,-115.234,-96.191,0.000
1587072132.148,-40.039,-503.906,-90.820,-120.117,0.000
1587072132.152,-10.742,238.281,-59.082,-76.660,0.000
1587072132.155,-44.434,513.184,-97.656,-43.457,0.000
1587072132.159,-57.129,-25.879,-129.883,-81.543,0.000
1587072132.163,-38.086,-670.410,-116.699,-127.930,0.000
1587072132.167,-29.785,-308.594,-88.379,-112.793,0.000
1587072132.171,-36.133,339.355,-102.539,-41.016,0.000
1587072132.175,-62.988,-25.391,-133.301,-30.273,0.000
1587072132.179,-54.199,-763.184,-99.609,-68.848,0.000
1587072132.183,-7.812,-139.648,-56.152,-62.988,0.000
1587072132.187,-7.324,277.832,-79.590,-3.418,0.000
1587072132.191,-37.109,-175.293,-73.730,7.324,0.000
1587072132.195,-51.270,-182.617,-56.152,-62.500,0.000
1587072132.198,-19.043,174.805,-62.988,-87.891,0.000
1587072132.202,2.441,228.516,-77.148,3.906,0.000
1587072132.206,-17.578,-126.953,-84.961,51.270,0.000
1587072132.210,-44.922,-173.340,-72.754,-41.016,0.000
1587072132.214,-37.109,-57.617,-63.477,-90.820,0.000
1587072132.218,0.488,129.395,-54.199,-28.320,0.000
1587072132.222,-9.766,-124.023,-73.730,23.438,0.000
1587072132.226,-48.828,-585.938,-68.359,-10.742,0.000
1587072132.230,-38.574,26.367,-66.406,-77.637,0.000
1587072132.234,3.418,358.887,-96.680,-43.945,0.000
1587072132.237,4.883,76.660,-96.680,15.137,0.000
1587072132.241,-27.832,28.320,-81.055,3.418,0.000
1587072132.245,-25.879,157.715,-62.988,-71.777,0.000
1587072132.249,10.742,317.871,-53.711,-61.035,0.000
1587072132.253,44.434,250.000,-54.199,35.156,0.000
1587072132.257,-16.113,73.730,-74.219,19.531,0.000
1587072132.261,-51.270,-136.719,-96.680,-69.336,0.000
1587072132.265,-7.324,-166.504,-82.520,-72.266,0.000
1587072132.269,12.207,-429.688,-75.684,-20.508,0.000
1587072132.273,-36.133,-169.922,-73.730,-4.883,0.000
1587072132.277,-55.664,-39.062,-92.773,-49.805,0.000
1587072132.280,-21.973,-263.672,-77.637,-93.262,0.000
1587072132.284,-8.301,261.719,-49.805,-54.688,0.000
1587072132.288,-22.949,474.121,-62.500,-3.418,0.000
1587072132.292,-54.199,143.066,-82.031,-34.668,0.000
1587072132.296,-45.898,-224.121,-81.055,-88.379,0.000
1587072132.300,-10.742,13.672,-66.406,-76.172,0.000
1587072132.304,-11.719,504.395,-73.242,9.277,0.000
1587072132.308,-65.430,-30.273,-94.727,17.090,0.000
1587072132.312,-68.359,-602.051,-87.891,-55.664,0.000
1587072132.316,-19.531,-238.281,-80.566,-63.477,0.000
1587072132.320,-9.277,98.145,-89.844,-8.789,0.000
1587072132.323,-44.434,147.949,-97.656,11.230,0.000
1587072132.327,-62.012,-494.141,-111.328,-24.414,0.000
1587072132.331,-33.691,-527.344,-87.891,-61.035,0.000
1587072132.335,-11.719,354.492,-91.309,-9.277,0.000
1587072132.339,-28.320,308.594,-104.004,27.832,0.000
1587072132.343,-49.316,-230.469,-83.984,-25.391,0.000
1587072132.347,-39.551,45.898,-70.312,-76.172,0.000
1587072132.351,-14.648,531.250,-94.727,-60.059,0.000
1587072132.355,-12.207,42.969,-112.793,0.977,0.000
1587072132.359,-41.992,-810.059,-107.422,0.977,0.000
1587072132.362,-55.176,-353.027,-81.055,-86.426,0.000
1587072132.366,-22.461,433.105,-83.008,-94.727,0.000
1587072132.370,-18.066,290.527,-110.840,-11.719,0.000
1587072132.374,-50.781,-366.211,-102.539,-7.324,0.000
1587072132.378,-64.453,-393.555,-74.219,-82.520,0.000
1587072132.382,-38.086,248.535,-92.285,-85.449,0.000
1587072132.386,-2.441,328.613,-117.188,-2.930,0.000
1587072132.390,-46.387,-10.742,-129.883,-2.930,0.000
1587072132.394,-67.871,-104.492,-151.855,-66.406,0.000
1587072132.398,-22.461,107.422,-108.398,-101.074,0.000
1587072132.402,19.531,17.578,-76.172,-39.062,0.000
1587072132.405,-18.066,-192.871,-76.172,8.301,0.000
1587072132.409,-75.684,-43.457,-86.426,-53.711,0.000
1587072132.413,-65.918,59.570,-96.680,-105.469,0.000
1587072132.417,-17.090,71.289,-94.238,-59.570,0.000
1587072132.421,-17.090,219.238,-103.027,-6.348,0.000
1587072132.425,-64.453,248.047,-122.070,-34.668,0.000
1587072132.429,-51.758,56.152,-131.836,-78.613,0.000
1587072132.433,-11.230,-260.742,-133.789,-57.617,0.000
1587072132.437,-17.578,-7.812,-90.820,5.371,0.000
1587072132.441,-43.945,231.934,-78.125,-1.465,0.000
1587072132.445,-48.828,-144.043,-86.914,-55.664,0.000
1587072132.448,-20.996,-356.445,-56.641,-67.383,0.000
1587072132.452,-11.719,49.316,-52.246,-22.461,0.000
1587072132.456,-46.387,316.895,-80.078,17.578,0.000
1587072132.460,-66.406,-203.125,-91.797,-17.578,0.000
1587072132.464,-34.668,-862.305,-77.637,-53.711,0.000
1587072132.468,-0.488,-187.500,-63.477,-3.418,0.000
1587072132.472,-16.113,491.699,-78.125,20.996,0.000
1587072132.476,-57.617,12.695,-92.773,-18.555,0.000
1587072132.480,-43.945,-66.406,-87.402,-72.266,0.000
1587072132.484,0.488,445.312,-81.055,-72.754,0.000
1587072132.487,-29.785,453.613,-88.867,-14.160,0.000
1587072132.491,-80.078,-238.281,-102.539,-31.250,0.000
1587072132.495,-79.590,-630.371,-90.820,-91.309,0.000
1587072132.499,-33.203,-240.723,-76.660,-89.844,0.000
1587072132.503,-4.883,291.016,-87.402,-22.461,0.000
1587072132.507,-43.945,-255.371,-117.188,13.184,0.000
1587072132.511,-71.289,-752.441,-79.102,-57.129,0.000
1587072132.515,-18.066,131.836,-54.199,-97.656,0.000
1587072132.519,20.996,541.992,-80.566,-15.137,0.000
1587072132.523,-17.578,37.109,-72.266,36.621,0.000
1587072132.527,-64.453,-160.645,-48.340,-47.363,0.000
1587072132.530,-54.688,144.043,-36.621,-104.492,0.000
1587072132.534,-12.695,435.059,-53.223,-25.391,0.000
1587072132.538,-22.461,136.719,-74.219,22.949,0.000
1587072132.542,-65.918,-407.715,-99.609,-25.879,0.000
1587072132.546,-54.199,-287.598,-98.633,-89.844,0.000
1587072132.550,-11.230,35.645,-74.219,-59.082,0.000
1587072132.554,0.977,-521.973,-75.684,23.438,0.000
1587072132.558,-55.176,-654.297,-83.008,-13.672,0.000
1587072132.562,-73.730,-540.527,-87.402,-74.219,0.000
1587072132.566,-27.344,-91.309,-80.078,-79.102,0.000
1587072132.570,-5.859,335.449,-69.824,-27.832,0.000
1587072132.573,-21.973,203.613,-83.984,11.230,0.000
1587072132.577,-42.480,-20.508,-106.445,-23.438,0.000
1587072132.581,-28.320,-38.574,-95.215,-77.148,0.000
1587072132.585,-10.742,209.961,-80.566,-27.832,0.000
1587072132.589,-35.156,-20.996,-89.355,17.090,0.000
1587072132.593,-60.547,-285.645,-90.332,-24.902,0.000
1587072132.597,-35.156,-507.812,-88.379,-56.152,0.000
1587072132.601,-0.977,-495.605,-66.895,-16.113,0.000
1587072132.605,-21.484,229.004,-63.477,26.855,0.000
1587072132.609,-57.617,-22.461,-85.938,-1.953,0.000
1587072132.612,-47.852,-465.820,-78.613,-52.246,0.000
1587072132.616,-8.301,199.707,-54.688,-48.340,0.000
1587072132.620,-9.766,681.641,-57.129,13.184,0.000
1587072132.624,-46.387,220.215,-81.543,-2.441,0.000
1587072132.628,-42.969,-209.961,-72.266,-63.965,0.000
1587072132.632,-27.832,171.387,-50.781,-75.684,0.000
1587072132.636,-9.277,271.973,-54.688,-24.902,0.000
1587072132.640,-31.250,-154.297,-78.613,11.230,0.000
1587072132.644,-42.480,-833.496,-78.613,-4.883,0.000
1587072132.648,-26.367,-214.355,-31.250,-58.105,0.000
1587072132.652,-12.695,572.754,-37.109,-25.391,0.000
1587072132.655,-19.531,92.773,-60.547,56.641,0.000
1587072132.659,-55.176,-204.102,-73.242,8.789,0.000
1587072132.663,-66.406,92.773,-86.426,-67.383,0.000
1587072132.667,-23.926,403.320,-84.961,-30.762,0.000
1587072132.671,-22.949,106.445,-99.609,17.090,0.000
1587072132.675,-57.129,-174.805,-95.703,-9.277,0.000
1587072132.679,-44.434,-104.004,-73.242,-57.617,0.000
1587072132.683,-19.043,83.496,-66.895,-68.359,0.000
1587072132.687,-11.230,-121.094,-88.379,-16.602,0.000
1587072132.691,-57.617,-627.441,-100.098,1.465,0.000
1587072132.695,-90.820,-162.598,-84.961,-70.801,0.000
1587072132.698,-45.898,279.297,-78.613,-91.797,0.000
1587072132.702,-6.348,43.457,-107.422,-25.391,0.000
1587072132.706,-41.016,-66.406,-117.676,0.977,0.000
1587072132.710,-74.219,77.637,-113.770,-46.387,0.000
1587072132.714,-39.551,141.602,-103.027,-65.918,0.000
1587072132.718,18.066,-89.355,-74.707,2.930,0.000
1587072132.722,-2.930,145.020,-78.613,50.293,0.000
1587072132.726,-52.734,74.707,-112.305,8.301,0.000
1587072132.730,-26.367,-401.855,-110.352,-58.594,0.000
1587072132.734,9.277,-555.664,-83.008,-62.012,0.000
1587072132.737,-18.066,107.910,-62.988,-27.344,0.000
1587072132.741,-65.430,326.172,-89.355,-35.156,0.000
1587072132.745,-60.059,-339.355,-93.750,-71.777,0.000
1587072132.749,-15.137,-348.145,-66.895,-70.312,0.000
1587072132.753,-13.184,345.215,-70.312,-18.066,0.000
1587072132.757,-38.574,238.770,-99.609,10.254,0.000
1587072132.761,-24.902,-296.387,-109.863,-46.875,0.000
1587072132.765,-34.180,-181.641,-93.750,-84.473,0.000
1587072132.769,-43.945,368.652,-78.613,-23.438,0.000
1587072132.773,-48.340,390.625,-90.332,-1.465,0.000
1587072132.777,-74.707,-319.824,-102.539,-52.246,0.000
1587072132.780,-57.617,-474.609,-62.012,-91.309,0.000
1587072132.784,-20.508,153.320,-47.852,-69.824,0.000
1587072132.788,-31.738,193.848,-80.566,-16.113,0.000
1587072132.792,-58.594,-364.746,-104.004,-28.320,0.000
1587072132.796,-53.223,-307.617,-84.473,-88.867,0.000
1587072132.800,-17.090,388.184,-59.082,-83.496,0.000
1587072132.804,-14.160,399.414,-81.055,-8.301,0.000
1587072132.808,-64.453,-416.992,-97.168,4.395,0.000
1587072132.812,-72.266,-352.051,-67.383,-49.805,0.000
1587072132.816,-25.879,332.031,-59.570,-79.590,0.000
1587072132.820,1.953,403.320,-93.750,-28.809,0.000
1587072132.823,-34.180,-336.914,-99.609,17.090,0.000
1587072132.827,-64.941,-568.359,-75.684,-57.129,0.000
1587072132.831,-25.879,98.145,-62.500,-85.938,0.000
1587072132.835,-13.672,223.633,-71.777,-29.785,0.000
1587072132.839,-57.617,-644.043,-91.309,-6.348,0.000
1587072132.843,-88.867,-662.109,-83.496,-61.523,0.000
1587072132.847,-62.500,-366.211,-70.801,-107.910,0.000
1587072132.851,-31.250,-143.066,-72.266,-65.918,0.000
1587072132.855,-50.293,147.461,-98.633,-1.953,0.000
1587072132.859,-77.148,7.324,-122.070,-17.578,0.000
1587072132.862,-58.105,-77.637,-102.051,-81.055,0.000
1587072132.866,-4.395,-21.484,-89.844,-77.148,0.000
1587072132.870,-0.488,-120.605,-90.820,-8.301,0.000
1587072132.874,-47.363,-189.453,-95.703,-1.465,0.000
1587072132.878,-63.477,15.137,-97.168,-78.125,0.000
1587072132.882,-22.461,-286.621,-104.492,-85.938,0.000
1587072132.886,-4.395,-591.309,-70.801,-19.531,0.000
1587072132.890,-39.551,72.754,-47.363,16.602,0.000
1587072132.894,-51.758,101.562,-86.426,-46.875,0.000
1587072132.898,-26.367,-176.758,-96.191,-104.004,0.000
1587072132.902,-9.766,220.215,-73.730,-53.711,0.000
1587072132.905,-31.738,438.965,-78.125,11.230,0.000
1587072132.909,-57.129,25.391,-99.609,-35.645,0.000
1587072132.913,-40.527,-262.207,-85.938,-98.145,0.000
1587072132.917,-1.465,-52.246,-73.730,-41.016,0.000
1587072132.921,-11.719,54.688,-86.426,14.648,0.000
1587072132.925,-66.895,-265.137,-104.004,-35.156,0.000
1587072132.929,-53.711,-825.684,-92.773,-81.055,0.000
1587072132.933,-19.043,-247.070,-61.523,-75.684,0.000
1587072132.937,-20.020,117.676,-86.426,-34.668,0.000
1587072132.941,-57.129,-262.695,-88.867,-38.086,0.000
1587072132.945,-75.684,-170.410,-66.406,-91.797,0.000
1587072132.948,-35.156,255.859,-62.012,-105.957,0.000
1587072132.952,-5.371,493.164,-59.570,-44.434,0.000
1587072132.956,-28.320,75.684,-83.496,-8.301,0.000
1587072132.960,-60.059,-391.113,-92.285,-55.664,0.000
1587072132.964,-32.227,-268.555,-62.988,-93.750,0.000
1587072132.968,8.789,138.672,-45.410,-51.270,0.000
1587072132.972,-12.207,-92.285,-74.219,10.742,0.000
1587072132.976,-54.688,-623.047,-72.754,-25.391,0.000
1587072132.980,-41.504,20.020,-54.688,-102.539,0.000
1587072132.984,-16.602,552.246,-80.566,-78.613,0.000
1587072132.987,-10.254,250.488,-104.980,-2.930,0.000
1587072132.991,-45.410,18.066,-125.000,-23.438,0.000
1587072132.995,-51.270,36.133,-115.723,-107.910,0.000
1587072132.999,-5.371,140.625,-88.867,-97.656,0.000
1587072133.003,-0.488,133.301,-95.703,-28.320,0.000
1587072133.007,-40.039,118.652,-116.211,-31.250,0.000
1587072133.011,-54.199,-145.996,-104.492,-93.262,0.000
1587072133.015,2.441,-359.863,-94.727,-83.984,0.000
1587072133.019,18.555,-560.059,-116.211,-2.930,0.000
1587072133.023,-35.156,-73.242,-98.145,-17.090,0.000
1587072133.027,-65.430,91.309,-91.309,-84.473,0.000
1587072133.030,-42.480,-217.773,-88.867,-117.676,0.000
1587072133.034,-12.207,225.586,-83.984,-83.984,0.000
1587072133.038,-21.484,492.676,-108.887,-36.133,0.000
1587072133.042,-66.895,89.844,-113.770,-56.152,0.000
1587072133.046,-61.035,-247.559,-94.238,-90.820,0.000
1587072133.050,-17.090,106.445,-73.242,-49.316,0.000
1587072133.054,-8.301,429.688,-83.496,19.043,0.000
1587072133.058,-27.344,-34.668,-100.586,-2.441,0.000
1587072133.062,-26.855,-559.570,-99.121,-50.781,0.000
1587072133.066,-2.930,-145.020,-97.168,-43.945,0.000
1587072133.070,-1.953,528.320,-96.680,8.789,0.000
1587072133.073,-24.902,246.094,-102.051,4.395,0.000
1587072133.077,-42.969,-688.477,-112.305,-71.777,0.000
1587072133.081,-35.645,-535.156,-78.125,-119.141,0.000
1587072133.085,-15.137,462.402,-72.754,-68.359,0.000
1587072133.089,-24.902,375.488,-100.586,-14.160,0.000
1587072133.093,-63.477,-354.492,-100.586,-63.965,0.000
1587072133.097,-58.105,-97.656,-77.637,-116.699,0.000
1587072133.101,-1.953,528.320,-62.988,-68.848,0.000
1587072133.105,-10.254,153.320,-85.449,-10.742,0.000
1587072133.109,-69.824,-764.648,-116.699,-20.996,0.000
1587072133.112,-63.477,-377.930,-89.355,-89.844,0.000
1587072133.116,-8.301,450.684,-81.055,-93.262,0.000
1587072133.120,-12.207,331.543,-92.285,-22.461,0.000
1587072133.124,-46.875,-260.742,-74.707,-34.668,0.000
1587072133.128,-59.082,-130.371,-68.359,-89.844,0.000
1587072133.132,-17.578,191.895,-70.312,-83.984,0.000
1587072133.136,26.367,131.348,-67.383,-13.184,0.000
1587072133.140,-25.391,-0.488,-66.406,4.883,0.000
1587072133.144,-69.824,-63.965,-61.523,-45.898,0.000
1587072133.148,-40.527,72.754,-51.758,-76.172,0.000
1587072133.152,-1.953,-163.086,-72.266,-43.457,0.000
1587072133.155,-26.367,-457.520,-86.914,-3.906,0.000
1587072133.159,-73.730,-88.867,-87.891,-40.527,0.000
1587072133.163,-61.035,130.371,-101.562,-107.910,0.000
1587072133.167,-4.883,-38.086,-108.398,-70.312,0.000
1587072133.171,-13.184,33.691,-84.961,9.277,0.000
1587072133.175,-71.777,119.141,-89.355,-25.879,0.000
1587072133.179,-71.289,-58.105,-117.188,-88.867,0.000
1587072133.183,-16.602,-366.699,-104.004,-64.941,0.000
1587072133.187,0.977,-13.672,-65.430,8.789,0.000
1587072133.191,-31.738,219.727,-78.125,12.207,0.000
1587072133.195,-47.852,-284.668,-96.191,-55.664,0.000
1587072133.198,-27.344,-463.379,-70.801,-62.988,0.000
1587072133.202,-5.371,-19.043,-57.129,-17.090,0.000
1587072133.206,-34.668,253.418,-86.914,-15.137,0.000
1587072133.210,-54.688,-180.664,-98.633,-44.922,0.000
1587072133.214,-23.926,-862.305,-89.355,-67.871,0.000
1587072133.218,6.348,-268.555,-71.289,-64.453,0.000
1587072133.222,-2.441,426.758,-60.547,-15.625,0.000
1587072133.226,-40.039,-117.676,-78.125,-18.555,0.000
1587072133.230,-67.871,-258.789,-70.801,-82.520,0.000
1587072133.234,-36.621,345.215,-64.453,-84.473,0.000
1587072133.237,-16.113,565.918,-81.055,-19.531,0.000
1587072133.241,-71.777,-51.270,-107.910,-38.086,0.000
1587072133.245,-92.773,-578.125,-105.957,-106.934,0.000
1587072133.249,-58.594,-225.098,-70.312,-106.934,0.000
1587072133.253,-56.641,125.488,-68.848,-69.336,0.000
1587072133.257,-112.305,-235.840,-94.238,-70.312,0.000
1587072133.261,-148.438,-254.395,-83.496,-142.578,0.000
1587072133.265,-123.047,219.727,-65.430,-172.852,0.000
1587072133.269,-88.867,348.633,-76.172,-99.121,0.000
1587072133.273,-92.285,-360.352,-91.309,-41.016,0.000
1587072133.277,-112.305,-671.875,-79.590,-93.262,0.000
1587072133.280,-81.055,10.254,-66.406,-151.855,0.000
1587072133.284,-40.527,329.590,-64.453,-95.703,0.000
1587072133.288,-53.711,-36.621,-75.195,-18.066,0.000
1587072133.292,-104.492,-452.637,-63.965,-50.293,0.000
1587072133.296,-107.910,-335.449,-35.645,-123.047,0.000
1587072133.300,-61.035,130.371,-43.457,-106.934,0.000
1587072133.304,-43.457,-340.820,-50.781,-11.230,0.000
1587072133.308,-70.312,-462.402,-35.645,-9.277,0.000
1587072133.312,-78.125,-379.395,-61.523,-83.984,0.000
1587072133.316,-37.598,-197.754,-43.457,-89.844,0.000
1587072133.320,-23.926,296.875,-25.391,-41.016,0.000
1587072133.323,-64.941,361.328,-59.570,-27.832,0.000
1587072133.327,-82.520,86.426,-84.473,-69.336,0.000
1587072133.331,-51.758,33.203,-60.059,-93.750,0.000
1587072133.335,-21.484,241.211,-38.086,-33.203,0.000
1587072133.339,-47.852,33.203,-46.875,10.742,0.000
1587072133.343,-80.566,-372.070,-62.988,-38.086,0.000
1587072133.347,-44.922,-505.859,-62.012,-74.707,0.000
1587072133.351,-0.977,6.836,-62.500,-45.410,0.000
1587072133.355,-1.465,512.207,-66.895,31.250,0.000
1587072133.359,-48.340,245.605,-63.965,-7.812,0.000
1587072133.362,-51.758,-518.066,-58.594,-105.469,0.000
1587072133.366,-10.742,-415.527,-31.250,-92.285,0.000
1587072133.370,-19.531,275.391,-39.551,-20.996,0.000
1587072133.374,-53.223,-3.418,-72.754,-28.320,0.000
1587072133.378,-67.871,-337.891,-71.289,-91.797,0.000
1587072133.382,-35.156,82.520,-64.941,-101.562,0.000
1587072133.386,-17.578,157.227,-66.895,-43.457,0.000
1587072133.390,-40.527,-246.582,-72.754,-18.555,0.000
1587072133.394,-61.523,-843.262,-75.684,-69.336,0.000
1587072133.398,-58.594,-187.988,-18.555,-134.766,0.000
1587072133.402,-15.625,555.664,-25.391,-81.543,0.000
1587072133.405,-30.273,34.180,-59.570,-27.832,0.000
1587072133.409,-69.824,-171.387,-37.598,-68.359,0.000
1587072133.413,-65.918,164.062,-33.691,-122.070,0.000
1587072133.417,-34.180,530.273,-56.152,-94.238,0.000
1587072133.421,-22.461,301.270,-98.633,-20.020,0.000
1587072133.425,-69.824,-217.285,-86.914,-41.504,0.000
1587072133.429,-78.613,-288.574,-58.594,-108.887,0.000
1587072133.433,-16.113,-103.027,-58.105,-88.867,0.000
1587072133.437,0.977,-36.621,-41.504,-11.719,0.000
1587072133.441,-47.852,-134.766,-50.781,-29.297,0.000
1587072133.445,-60.547,-68.848,-45.898,-91.797,0.000
1587072133.448,-20.020,273.438,-22.461,-106.934,0.000
1587072133.452,-4.395,-28.320,-43.945,-51.758,0.000
1587072133.456,-47.363,-366.699,-32.715,-15.625,0.000
1587072133.460,-60.547,34.180,-21.973,-77.637,0.000
1587072133.464,-25.879,89.844,-35.156,-116.211,0.000
1587072133.468,-4.395,58.105,-37.109,-51.270,0.000
1587072133.472,-18.066,236.816,-29.297,18.066,0.000
1587072133.476,-40.039,14.648,-25.391,-34.180,0.000
1587072133.480,-29.785,-418.457,-3.906,-78.125,0.000
1587072133.484,3.906,-815.430,17.090,-25.879,0.000
1587072133.487,6.348,-338.867,28.809,15.625,0.000
1587072133.491,-45.898,296.387,16.602,-14.160,0.000
1587072133.495,-50.781,-95.703,-9.766,-65.430,0.000
1587072133.499,-7.324,-400.879,-13.184,-63.477,0.000
1587072133.503,-0.488,197.266,-4.395,-7.812,0.000
1587072133.507,-35.645,300.293,-28.320,-7.324,0.000
1587072133.511,-72.754,-218.262,-59.082,-70.801,0.000
1587072133.515,-50.781,-75.684,-39.062,-89.844,0.000
1587072133.519,-18.555,439.453,-18.555,-37.109,0.000
1587072133.523,-52.734,265.625,-40.527,19.531,0.000
1587072133.527,-77.148,-514.648,-54.688,-13.184,0.000
1587072133.530,-53.711,-666.016,-37.109,-91.797,0.000
1587072133.534,-25.879,271.973,-21.484,-52.734,0.000
1587072133.538,-50.781,508.301,-45.898,26.855,0.000
1587072133.542,-65.918,-356.445,-89.844,31.250,0.000
1587072133.546,-26.855,-475.098,-56.641,-25.879,0.000
1587072133.550,-7.324,444.824,-20.996,-53.711,0.000
1587072133.554,-34.668,643.066,-38.574,-32.227,0.000
1587072133.558,-56.152,-65.918,-57.617,-27.344,0.000
1587072133.562,-48.828,-175.293,-66.406,-77.637,0.000
1587072133.566,-34.668,371.094,-72.266,-90.820,0.000
1587072133.570,4.395,497.559,-103.027,-8.301,0.000
1587072133.573,-10.742,-216.309,-137.695,-1.953,0.000
1587072133.577,-52.734,-475.098,-127.441,-81.055,0.000
1587072133.581,-49.805,138.672,-113.281,-110.352,0.000
1587072133.585,-4.883,258.301,-140.625,-26.367,0.000
1587072133.589,-2.441,-544.434,-134.277,9.277,0.000
1587072133.593,-40.039,-649.414,-92.773,-49.316,0.000
1587072133.597,-17.578,-37.598,-74.707,-104.492,0.000
1587072133.601,26.367,73.730,-83.496,-70.801,0.000
1587072133.605,-5.859,-212.891,-83.984,-14.160,0.000
1587072133.609,-49.805,-79.102,-83.008,-20.508,0.000
1587072133.612,-32.715,31.738,-101.562,-72.266,0.000
1587072133.616,-1.465,-17.578,-110.352,-80.566,0.000
1587072133.620,-3.418,-119.629,-93.262,-6.348,0.000
1587072133.624,-32.715,-207.031,-89.844,6.836,0.000
1587072133.628,-44.434,-60.059,-92.773,-81.543,0.000
1587072133.632,6.836,-271.484,-87.402,-87.891,0.000
1587072133.636,21.484,-373.535,-50.293,-4.883,0.000
1587072133.640,-8.301,94.238,-53.223,13.672,0.000
1587072133.644,-28.809,-26.855,-84.961,-31.250,0.000
1587072133.648,-13.672,-202.148,-75.684,-61.523,0.000
1587072133.652,20.020,338.379,-58.105,-18.066,0.000
1587072133.655,2.930,526.367,-87.402,19.043,0.000
1587072133.659,-41.992,-177.734,-115.723,-27.832,0.000
1587072133.663,-36.621,-457.520,-93.262,-82.520,0.000
1587072133.667,14.648,-37.109,-89.844,-37.109,0.000
1587072133.671,12.695,174.805,-102.051,6.836,0.000
1587072133.675,-43.457,-107.910,-115.234,-35.156,0.000
1587072133.679,-46.387,-757.812,-105.957,-70.801,0.000
1587072133.683,-1.465,-128.418,-61.035,-50.781,0.000
1587072133.687,5.371,251.465,-75.195,10.254,0.000
1587072133.691,-31.738,-244.141,-108.398,26.367,0.000
1587072133.695,-47.852,-352.051,-107.910,-56.152,0.000
1587072133.698,-14.160,85.449,-77.637,-103.027,0.000
1587072133.702,18.066,472.656,-59.082,-24.902,0.000
1587072133.706,-7.324,135.742,-72.754,20.996,0.000
1587072133.710,-49.316,-321.777,-76.660,-52.734,0.000
1587072133.714,-31.250,-322.754,-72.266,-79.102,0.000
1587072133.718,13.184,-82.031,-69.824,-29.785,0.000
1587072133.722,2.930,-315.430,-84.473,10.742,0.000
1587072133.726,-42.969,-692.383,-85.938,-30.762,0.000
1587072133.730,-58.105,-28.320,-74.707,-106.445,0.000
1587072133.734,-32.227,554.688,-86.426,-95.703,0.000
1587072133.737,-42.969,3.906,-105.469,-37.109,0.000
1587072133.741,-89.844,-288.086,-118.652,-40.039,0.000
1587072133.745,-93.262,31.250,-118.164,-83.984,0.000
1587072133.749,-55.176,208.008,-95.215,-104.980,0.000
1587072133.753,-29.785,158.691,-106.445,-40.039,0.000
1587072133.757,-49.316,61.035,-115.723,-2.930,0.000
1587072133.761,-77.637,-221.191,-100.586,-79.102,0.000
1587072133.765,-50.781,-270.020,-85.449,-99.121,0.000
1587072133.769,-7.324,-538.574,-95.215,-9.277,0.000
1587072133.773,-37.598,-312.988,-87.402,13.184,0.000
1587072133.777,-54.199,-66.895,-95.703,-52.246,0.000
1587072133.780,-39.062,-324.219,-103.027,-98.145,0.000
1587072133.784,-22.461,54.688,-108.398,-70.801,0.000
1587072133.788,-22.949,468.262,-124.023,-6.836,0.000
1587072133.792,-59.570,181.152,-119.141,-5.859,0.000
1587072133.796,-40.527,-221.680,-97.168,-62.988,0.000
1587072133.800,-4.883,136.719,-99.121,-83.496,0.000
1587072133.804,-22.461,504.395,-116.211,-22.949,0.000
1587072133.808,-67.871,3.418,-123.047,-6.836,0.000
1587072133.812,-63.477,-657.715,-120.117,-69.824,0.000
1587072133.816,-26.855,-477.539,-86.914,-76.660,0.000
1587072133.820,-28.809,388.184,-85.938,-21.484,0.000
1587072133.823,-60.547,320.801,-119.629,-4.883,0.000
1587072133.827,-58.105,-473.633,-131.836,-35.156,0.000
1587072133.831,-30.273,-236.816,-101.562,-73.730,0.000
1587072133.835,0.977,443.359,-95.703,-40.039,0.000
1587072133.839,4.883,244.629,-125.000,0.000,0.000
1587072133.843,-50.781,-260.254,-134.766,-37.109,0.000
1587072133.847,-53.223,-62.988,-117.676,-77.148,0.000
1587072133.851,-3.906,394.043,-103.516,-52.734,0.000
1587072133.855,-3.418,-14.160,-118.164,-4.395,0.000
1587072133.859,-50.781,-559.570,-104.492,-43.457,0.000
1587072133.862,-34.668,-228.516,-85.938,-102.539,0.000
1587072133.866,0.977,347.168,-105.957,-90.332,0.000
1587072133.870,-18.555,192.871,-125.000,-20.508,0.000
1587072133.874,-51.270,-798.828,-138.672,0.000,0.000
1587072133.878,-68.359,-491.699,-104.004,-88.379,0.000
1587072133.882,-32.715,375.488,-87.402,-64.941,0.000
1587072133.886,-10.742,321.777,-100.098,-6.348,0.000
1587072133.890,-30.273,31.250,-98.633,-30.762,0.000
1587072133.894,-39.062,-249.512,-116.699,-83.008,0.000
1587072133.898,-13.672,-159.180,-105.957,-107.910,0.000
1587072133.902,-7.324,-82.031,-105.957,-42.480,0.000
1587072133.905,-48.340,-209.961,-138.672,-16.113,0.000
1587072133.909,-64.941,-104.980,-136.719,-57.129,0.000
1587072133.913,-39.062,-23.926,-101.562,-89.844,0.000
1587072133.917,-0.977,-177.734,-104.492,-66.895,0.000
1587072133.921,-25.391,-454.102,-108.398,-29.785,0.000
1587072133.925,-77.148,-61.523,-110.352,-53.223,0.000
1587072133.929,-71.289,8.301,-124.512,-102.539,0.000
1587072133.933,-24.902,-49.316,-97.656,-99.121,0.000
1587072133.937,-23.438,364.746,-90.820,-41.504,0.000
1587072133.941,-56.641,243.652,-115.234,-42.480,0.000
1587072133.945,-49.805,-105.957,-114.258,-86.426,0.000
1587072133.948,-24.414,-320.312,-95.215,-99.609,0.000
1587072133.952,-19.531,-137.207,-90.820,-76.172,0.000
1587072133.956,-47.363,142.578,-102.051,-40.527,0.000
1587072133.960,-68.848,-89.844,-120.117,-66.406,0.000
1587072133.964,-34.180,-764.648,-128.418,-84.473,0.000
1587072133.968,17.578,-226.074,-84.473,-22.461,0.000
1587072133.972,-16.113,375.977,-87.402,-14.648,0.000
1587072133.976,-73.730,-72.266,-106.934,-71.777,0.000
1587072133.980,-67.871,-187.500,-95.215,-119.629,0.000
1587072133.984,-12.207,196.289,-96.191,-77.148,0.000
1587072133.987,-4.883,280.273,-111.328,5.859,0.000
1587072133.991,-43.945,-273.438,-143.066,-20.996,0.000
1587072133.995,-39.551,-678.711,-133.301,-67.383,0.000
1587072133.999,-20.508,-146.973,-97.168,-72.266,0.000
1587072134.003,-21.484,459.473,-104.980,-40.527,0.000
1587072134.007,-41.992,-169.922,-136.230,-12.207,0.000
1587072134.011,-52.734,-942.871,-113.281,-40.527,0.000
1587072134.015,-32.715,-201.172,-65.430,-83.008,0.000
1587072134.019,10.742,541.992,-62.500,-29.785,0.000
1587072134.023,-18.555,187.988,-86.426,16.602,0.000
1587072134.027,-73.242,-79.590,-82.031,-49.805,0.000
1587072134.030,-41.504,194.336,-64.453,-92.285,0.000
1587072134.034,-24.414,403.809,-74.219,-64.453,0.000
1587072134.038,-48.828,71.777,-94.727,-14.160,0.000
1587072134.042,-80.078,-393.555,-103.516,-17.578,0.000
1587072134.046,-66.406,-250.977,-99.121,-84.473,0.000
1587072134.050,-2.930,190.918,-88.867,-72.266,0.000
1587072134.054,-16.602,-352.539,-103.027,-4.395,0.000
1587072134.058,-67.383,-556.152,-113.770,-14.648,0.000
1587072134.062,-65.430,-112.305,-88.867,-85.449,0.000
1587072134.066,-27.344,71.777,-90.820,-107.910,0.000
1587072134.070,-6.836,-132.324,-94.238,-48.828,0.000
1587072134.073,-32.715,-11.230,-87.891,-34.668,0.000
1587072134.077,-61.523,104.980,-90.332,-92.285,0.000
1587072134.081,-41.504,3.418,-102.051,-110.352,0.000
1587072134.085,-0.977,99.609,-104.004,-64.941,0.000
1587072134.089,-20.508,49.805,-102.051,-24.902,0.000
1587072134.093,-69.824,-182.129,-112.793,-58.105,0.000
1587072134.097,-58.594,-416.504,-128.906,-129.883,0.000
1587072134.101,-15.137,-324.219,-108.398,-95.703,0.000
1587072134.105,-33.691,412.598,-101.074,-50.293,0.000
1587072134.109,-80.078,273.438,-127.930,-81.543,0.000
1587072134.112,-60.059,-238.770,-145.996,-137.207,0.000
1587072134.116,-8.789,229.004,-124.023,-118.652,0.000
1587072134.120,7.324,647.461,-92.773,-36.621,0.000
1587072134.124,-42.969,160.156,-92.773,-43.457,0.000
1587072134.128,-59.082,-410.156,-99.609,-99.609,0.000
1587072134.132,15.625,-146.973,-90.820,-76.172,0.000
1587072134.136,29.785,140.625,-104.980,-8.301,0.000
1587072134.140,-43.457,-207.031,-129.395,-24.414,0.000
1587072134.144,-81.055,-837.402,-125.488,-83.496,0.000
1587072134.148,-58.594,-206.543,-75.195,-114.746,0.000
1587072134.152,-29.297,487.793,-65.918,-66.406,0.000
1587072134.155,-42.480,11.230,-69.824,-21.973,0.000
1587072134.159,-84.473,-305.176,-72.754,-57.617,0.000
1587072134.163,-84.473,-110.352,-92.285,-125.488,0.000
1587072134.167,-42.480,341.309,-95.215,-103.027,0.000
1587072134.171,-54.199,253.418,-97.168,-45.898,0.000
1587072134.175,-104.004,-89.844,-90.820,-64.453,0.000
1587072134.179,-76.172,-56.641,-87.402,-89.844,0.000
1587072134.183,-28.809,52.246,-106.934,-79.102,0.000
1587072134.187,-39.062,-190.430,-122.070,-19.531,0.000
1587072134.191,-55.664,-573.730,-72.754,-4.883,0.000
1587072134.195,-74.219,-118.652,-43.457,-84.961,0.000
1587072134.198,-61.035,194.824,-58.105,-112.793,0.000
1587072134.202,-9.766,108.398,-67.383,-9.766,0.000
1587072134.206,-46.387,96.191,-92.773,2.930,0.000
1587072134.210,-88.867,51.270,-111.816,-109.375,0.000
1587072134.214,-48.340,46.387,-89.844,-130.859,0.000
1587072134.218,-11.719,75.195,-79.102,-50.293,0.000
1587072134.222,-32.227,153.320,-88.379,-0.977,0.000
1587072134.226,-64.941,31.738,-92.773,-45.410,0.000
1587072134.230,-38.574,-253.418,-84.961,-73.242,0.000
1587072134.234,-4.883,-646.484,-80.078,-35.645,0.000
1587072134.237,-29.297,-79.102,-65.918,-16.602,0.000
1587072134.241,-72.266,197.266,-97.656,-35.156,0.000
1587072134.245,-75.195,-360.352,-116.211,-77.637,0.000
1587072134.249,-29.297,-190.430,-100.586,-96.191,0.000
1587072134.253,-6.348,465.332,-106.445,-40.039,0.000
1587072134.257,-60.547,476.074,-145.508,-12.695,0.000
1587072134.261,-80.566,-162.598,-161.621,-51.270,0.000
1587072134.265,-33.691,-174.805,-122.070,-91.797,0.000
1587072134.269,-12.207,376.953,-104.980,-41.016,0.000
1587072134.273,-31.738,292.480,-120.605,9.766,0.000
1587072134.277,-74.707,-514.160,-146.484,-48.340,0.000
1587072134.280,-71.289,-583.008,-128.418,-81.055,0.000
1587072134.284,-31.738,305.664,-117.188,-41.992,0.000
1587072134.288,-31.738,528.809,-147.461,0.000,0.000
1587072134.292,-64.453,-364.746,-159.180,-11.230,0.000
1587072134.296,-52.246,-685.059,-115.723,-55.176,0.000
1587072134.300,-15.137,142.090,-81.055,-59.082,0.000
1587072134.304,-29.297,180.664,-122.559,1.465,0.000
1587072134.308,-65.430,-426.758,-152.344,27.344,0.000
1587072134.312,-66.406,-272.461,-111.816,-61.035,0.000
1587072134.316,-36.621,333.496,-70.312,-89.355,0.000
1587072134.320,-18.555,212.891,-95.215,1.953,0.000
1587072134.323,-58.105,-713.867,-132.324,9.766,0.000
1587072134.327,-83.496,-700.684,-102.051,-68.359,0.000
1587072134.331,-47.852,234.375,-77.148,-90.332,0.000
1587072134.335,-23.926,393.066,-104.492,-33.203,0.000
1587072134.339,-48.340,-325.684,-121.582,14.160,0.000
1587072134.343,-78.613,-520.996,-109.863,-19.043,0.000
1587072134.347,-49.805,-9.766,-89.355,-69.336,0.000
1587072134.351,-19.043,328.613,-97.168,-34.668,0.000
1587072134.355,-49.805,189.453,-112.793,0.977,0.000
1587072134.359,-94.238,0.977,-127.441,-31.738,0.000
1587072134.362,-89.844,-232.422,-123.047,-96.191,0.000
1587072134.366,-45.410,-127.441,-110.352,-91.309,0.000
1587072134.370,-35.645,-61.035,-111.328,-6.836,0.000
1587072134.374,-39.551,-238.281,-99.121,-6.348,0.000
1587072134.378,-54.688,-101.562,-105.469,-68.848,0.000
1587072134.382,-43.457,-283.203,-121.582,-84.473,0.000
1587072134.386,-27.832,-323.242,-97.168,-12.695,0.000
1587072134.390,-72.754,249.023,-94.238,-2.441,0.000
1587072134.394,-85.449,69.824,-96.680,-71.289,0.000
1587072134.398,-49.316,-199.707,-85.449,-91.797,0.000
1587072134.402,-31.250,299.316,-89.355,-65.918,0.000
1587072134.405,-48.340,530.762,-94.238,-16.113,0.000
1587072134.409,-78.125,21.484,-108.398,-35.156,0.000
1587072134.413,-63.965,-261.719,-108.398,-86.426,0.000
1587072134.417,-19.043,2.930,-103.027,-40.039,0.000
1587072134.421,-12.207,37.598,-102.539,22.949,0.000
1587072134.425,-59.082,-430.176,-146.973,7.324,0.000
1587072134.429,-64.453,-868.652,-149.902,-51.758,0.000
1587072134.433,-33.691,-171.875,-82.520,-93.262,0.000
1587072134.437,-28.809,156.250,-85.938,-19.043,0.000
1587072134.441,-50.293,-166.992,-97.656,24.414,0.000
1587072134.445,-69.824,-187.500,-111.816,-67.383,0.000
1587072134.448,-41.016,188.965,-122.559,-84.961,0.000
1587072134.452,-12.207,537.598,-131.836,-19.043,0.000
1587072134.456,-52.246,118.164,-164.062,-5.859,0.000
1587072134.460,-68.848,-220.215,-148.438,-50.293,0.000
1587072134.464,-15.625,-191.895,-115.234,-75.684,0.000
1587072134.468,12.207,-20.508,-114.258,-41.504,0.000
1587072134.472,-27.832,-139.160,-133.301,-1.953,0.000
1587072134.476,-77.148,-467.285,-133.789,-40.527,0.000
1587072134.480,-71.777,-338.867,-123.535,-115.234,0.000
1587072134.484,-25.879,226.562,-109.863,-85.938,0.000
1587072134.487,-12.695,-157.715,-121.094,6.836,0.000
1587072134.491,-56.641,-680.176,-97.168,-9.766,0.000
1587072134.495,-52.734,-87.891,-93.750,-78.125,0.000
1587072134.499,-0.488,279.785,-122.070,-59.570,0.000
1587072134.503,9.766,237.793,-122.559,2.441,0.000
1587072134.507,-11.230,62.012,-124.023,-5.859,0.000
1587072134.511,-41.016,-275.879,-124.512,-61.523,0.000
1587072134.515,-18.066,-350.586,-129.395,-87.402,0.000
1587072134.519,20.508,-463.867,-138.672,-36.621,0.000
1587072134.523,-19.043,-69.824,-127.441,6.836,0.000
1587072134.527,-61.523,32.715,-142.578,-42.480,0.000
1587072134.530,-45.898,-295.898,-147.949,-103.027,0.000
1587072134.534,-3.906,38.086,-139.160,-49.316,0.000
1587072134.538,0.000,53.223,-150.879,11.230,0.000
1587072134.542,-40.527,-39.062,-152.344,-35.156,0.000
1587072134.546,-61.035,-76.172,-139.648,-108.398,0.000
1587072134.550,-68.359,227.539,-116.699,-121.094,0.000
1587072134.554,-95.215,421.387,-142.578,-94.727,0.000
1587072134.558,-132.812,-99.609,-155.762,-92.285,0.000
1587072134.562,-162.598,-504.395,-147.461,-154.297,0.000
1587072134.566,-166.016,-58.594,-135.254,-199.219,0.000
1587072134.570,-159.180,558.594,-121.582,-153.320,0.000
1587072134.573,-185.059,307.617,-132.812,-159.180,0.000
1587072134.577,-257.812,-587.891,-165.039,-259.277,0.000
1587072134.581,-292.969,-615.723,-148.438,-340.820,0.000
1587072134.585,-297.363,412.598,-110.840,-329.102,0.000
1587072134.589,-341.309,417.480,-125.000,-297.363,0.000
1587072134.593,-375.488,-569.824,-153.809,-340.332,0.000
1587072134.597,-344.727,-461.914,-140.625,-388.184,0.000
1587072134.601,-302.246,461.426,-120.605,-331.055,0.000
1587072134.605,-323.242,213.867,-140.137,-278.320,0.000
1587072134.609,-356.445,-789.062,-168.945,-310.547,0.000
1587072134.612,-351.074,-630.859,-132.324,-358.887,0.000
1587072134.616,-301.758,271.484,-112.793,-315.430,0.000
1587072134.620,-260.742,283.203,-158.691,-240.234,0.000
1587072134.624,-282.227,-367.676,-152.344,-252.441,0.000
1587072134.628,-280.762,-151.367,-100.098,-298.828,0.000
1587072134.632,-206.055,391.602,-105.469,-280.762,0.000
1587072134.636,-182.129,408.691,-129.883,-190.918,0.000
1587072134.640,-206.055,110.840,-141.602,-179.688,0.000
1587072134.644,-210.449,-15.625,-144.531,-226.562,0.000
1587072134.648,-166.504,137.207,-142.090,-215.820,0.000
1587072134.652,-108.887,-18.066,-151.855,-150.391,0.000
1587072134.655,-102.051,-388.184,-150.391,-94.238,0.000
1587072134.659,-104.492,-373.047,-140.625,-91.797,0.000
1587072134.663,-63.477,46.387,-146.484,-114.746,0.000
1587072134.667,-7.324,0.488,-169.434,-101.074,0.000
1587072134.671,-9.766,-14.160,-153.320,-34.180,0.000
1587072134.675,-38.086,202.637,-144.043,-20.996,0.000
1587072134.679,-34.668,-59.570,-146.484,-71.289,0.000
1587072134.683,18.066,-33.691,-126.465,-60.059,0.000
1587072134.687,42.969,294.922,-123.047,-10.742,0.000
1587072134.691,-5.859,172.852,-141.602,-15.625,0.000
1587072134.695,-6.348,-198.242,-145.020,-38.086,0.000
1587072134.698,38.086,-506.836,-137.207,-43.457,0.000
1587072134.702,66.895,-147.949,-142.578,13.184,0.000
1587072134.706,33.691,147.949,-142.578,56.641,0.000
1587072134.710,8.789,-297.363,-150.391,-3.418,0.000
1587072134.714,42.480,-874.023,-135.742,-25.391,0.000
1587072134.718,51.758,-191.895,-101.074,-3.906,0.000
1587072134.722,29.785,429.199,-123.047,27.832,0.000
1587072134.726,6.836,-117.676,-143.555,8.301,0.000
1587072134.730,24.902,-287.109,-113.770,-27.832,0.000
1587072134.734,55.176,317.383,-94.727,-2.441,0.000
1587072134.737,60.059,575.684,-119.629,45.898,0.000
1587072134.741,32.715,-36.133,-141.602,33.691,0.000
1587072134.745,11.719,-572.754,-117.676,-21.973,0.000
1587072134.749,46.387,-177.734,-85.449,-22.949,0.000
1587072134.753,54.199,355.469,-83.008,54.688,0.000
1587072134.757,16.113,-134.766,-100.586,61.035,0.000
1587072134.761,-8.301,-479.004,-82.520,-25.879,0.000
1587072134.765,23.926,52.734,-76.172,-52.734,0.000
1587072134.769,67.871,310.547,-81.055,33.203,0.000
1587072134.773,33.691,-332.031,-90.332,63.965,0.000
1587072134.777,6.836,-562.500,-67.871,-14.648,0.000
1587072134.780,29.297,153.320,-71.777,-40.039,0.000
1587072134.784,59.082,435.547,-78.125,5.859,0.000
1587072134.788,63.965,70.312,-75.684,58.594,0.000
1587072134.792,10.742,-433.105,-93.262,21.973,0.000
1587072134.796,0.000,-428.711,-79.590,-47.852,0.000
1587072134.800,53.223,8.301,-82.031,-27.832,0.000
1587072134.804,55.664,-517.578,-101.562,55.176,0.000
1587072134.808,1.953,-617.188,-82.520,53.223,0.000
1587072134.812,-3.418,-243.164,-85.449,-20.020,0.000
1587072134.816,26.855,-60.059,-83.008,-41.016,0.000
1587072134.820,36.621,272.949,-77.148,22.461,0.000
1587072134.823,4.883,339.355,-93.262,40.527,0.000
1587072134.827,-22.949,-40.527,-111.816,-27.832,0.000
1587072134.831,13.672,-177.246,-103.516,-46.875,0.000
1587072134.835,35.156,281.738,-88.867,17.578,0.000
1587072134.839,11.230,147.949,-111.816,54.199,0.000
1587072134.843,-3.906,-393.066,-127.930,40.527,0.000
1587072134.847,14.648,-440.430,-126.953,-29.785,0.000
1587072134.851,30.762,-14.160,-112.305,-39.062,0.000
1587072134.855,-5.859,456.543,-112.793,15.625,0.000
1587072134.859,-41.992,347.656,-122.070,13.672,0.000
1587072134.862,-24.414,-458.984,-131.348,-28.320,0.000
1587072134.866,12.695,-529.297,-114.746,-37.109,0.000
1587072134.870,16.113,397.461,-95.215,20.996,0.000
1587072134.874,-11.719,234.863,-114.746,14.648,0.000
1587072134.878,-36.621,-268.066,-107.422,-50.781,0.000
1587072134.882,1.953,94.238,-93.750,-55.664,0.000
1587072134.886,13.672,312.012,-117.188,15.625,0.000
1587072134.890,-14.648,-47.363,-128.418,43.457,0.000
1587072134.894,-21.484,-803.223,-125.977,-21.973,0.000
1587072134.898,-3.906,-262.207,-88.379,-83.496,0.000
1587072134.902,24.414,462.402,-93.262,-27.344,0.000
1587072134.905,10.254,-2.441,-119.141,43.457,0.000
1587072134.909,-24.902,-217.285,-104.004,-1.953,0.000
1587072134.913,-37.109,76.172,-75.195,-67.383,0.000
1587072134.917,-15.137,328.613,-80.078,-34.668,0.000
1587072134.921,-2.441,189.941,-110.840,17.090,0.000
1587072134.925,-45.898,-132.812,-113.770,3.906,0.000
1587072134.929,-39.551,-100.098,-118.164,-44.434,0.000
1587072134.933,16.113,-4.883,-117.188,-38.086,0.000
1587072134.937,17.578,30.762,-113.281,38.574,0.000
1587072134.941,-13.672,54.199,-105.469,42.969,0.000
1587072134.945,-15.625,-187.500,-92.773,-3.906,0.000
1587072134.948,2.441,-111.328,-97.168,-5.859,0.000
1587072134.952,23.926,-125.000,-118.164,26.855,0.000
1587072134.956,4.883,-443.359,-104.004,65.918,0.000
1587072134.960,-30.273,-137.695,-92.285,34.180,0.000
1587072134.964,-4.395,144.531,-90.820,-31.250,0.000
1587072134.968,40.039,239.258,-88.379,0.488,0.000
1587072134.972,18.066,347.168,-116.211,44.434,0.000
1587072134.976,-50.293,-1.465,-132.324,2.930,0.000
1587072134.980,-47.852,-389.648,-120.605,-47.852,0.000
1587072134.984,1.953,-653.809,-112.793,-31.738,0.000
1587072134.987,-9.766,-214.844,-102.051,10.742,0.000
1587072134.991,-41.016,118.652,-99.609,0.977,0.000
1587072134.995,-37.598,-263.184,-99.609,-60.059,0.000
1587072134.999,-2.930,-176.270,-86.914,-62.988,0.000
1587072135.003,-7.324,242.676,-112.305,13.184,0.000
1587072135.007,-48.340,56.641,-140.625,24.902,0.000
1587072135.011,-49.805,-299.316,-122.070,-36.133,0.000
1587072135.015,-22.461,-59.570,-104.980,-60.059,0.000
1587072135.019,5.859,427.246,-110.840,-11.719,0.000
1587072135.023,-25.391,315.430,-115.234,16.602,0.000
1587072135.027,-59.082,-335.449,-110.352,-36.133,0.000
1587072135.030,-23.438,-401.367,-90.820,-83.496,0.000
1587072135.034,12.695,360.840,-88.379,-58.594,0.000
1587072135.038,4.395,407.227,-105.469,-4.395,0.000
1587072135.042,-21.973,-555.176,-124.512,-4.883,0.000
1587072135.046,-27.344,-736.816,-83.984,-65.430,0.000
1587072135.050,-0.488,275.391,-54.199,-85.938,0.000
1587072135.054,-7.324,603.027,-88.379,-11.230,0.000
1587072135.058,-41.504,-55.664,-113.281,-18.066,0.000
1587072135.062,-44.922,-390.137,-107.422,-83.008,0.000
1587072135.066,-21.484,66.406,-88.379,-88.867,0.000
1587072135.070,-3.906,419.434,-97.168,-38.086,0.000
1587072135.073,-29.297,-280.273,-118.652,5.859,0.000
1587072135.077,-45.898,-584.473,-112.793,-49.805,0.000
1587072135.081,-23.438,49.805,-104.492,-99.121,0.000
1587072135.085,-10.254,391.602,-107.422,-47.363,0.000
1587072135.089,-19.043,-557.617,-136.719,6.836,0.000
1587072135.093,-53.223,-838.379,-121.094,-43.945,0.000
1587072135.097,-25.879,-127.441,-83.984,-86.426,0.000
1587072135.101,11.230,175.293,-97.168,-19.531,0.000
1587072135.105,-8.789,213.379,-118.652,5.371,0.000
1587072135.109,-42.480,110.840,-111.328,-40.039,0.000
1587072135.112,-48.340,76.660,-91.309,-83.496,0.000
1587072135.116,20.508,82.031,-81.055,-45.898,0.000
1587072135.120,35.645,22.949,-78.125,30.762,0.000
1587072135.124,-35.156,-255.371,-80.566,14.648,0.000
1587072135.128,-65.430,-373.535,-72.266,-80.078,0.000
1587072135.132,-31.738,-353.027,-80.566,-86.426,0.000
1587072135.136,-14.160,-271.484,-78.125,-26.855,0.000
1587072135.140,-58.105,139.160,-71.289,-31.250,0.000
1587072135.144,-75.195,52.734,-82.520,-79.102,0.000
1587072135.148,-57.617,-361.328,-83.984,-106.934,0.000
1587072135.152,-13.672,-4.395,-73.242,-69.824,0.000
1587072135.155,-18.066,351.562,-95.703,-9.277,0.000
1587072135.159,-64.453,-66.895,-109.375,-42.969,0.000
1587072135.163,-41.504,-340.332,-58.594,-92.285,0.000
1587072135.167,1.953,-89.355,-54.199,-53.223,0.000
1587072135.171,-29.785,124.512,-79.102,8.301,0.000
1587072135.175,-63.477,-91.797,-100.586,-12.695,0.000
1587072135.179,-39.062,-811.523,-113.770,-59.570,0.000
1587072135.183,-13.184,-319.824,-68.359,-63.477,0.000
1587072135.187,1.953,170.410,-80.078,-19.043,0.000
1587072135.191,-34.668,-205.566,-96.680,-25.391,0.000
1587072135.195,-70.312,-285.645,-77.148,-86.914,0.000
1587072135.198,-30.273,194.824,-66.895,-89.844,0.000
1587072135.202,22.949,617.188,-61.523,-31.250,0.000
1587072135.206,-5.859,206.543,-85.938,20.996,0.000
1587072135.210,-60.547,-201.660,-93.750,-24.414,0.000
1587072135.214,-61.523,-178.711,-64.941,-87.402,0.000
1587072135.218,-38.086,75.195,-68.359,-56.641,0.000
1587072135.222,-30.273,-129.883,-104.980,-1.953,0.000
1587072135.226,-56.152,-655.762,-76.172,-35.156,0.000
1587072135.230,-81.543,-78.613,-56.641,-104.980,0.000
1587072135.234,-36.133,409.180,-79.590,-61.035,0.000
1587072135.237,-9.277,113.281,-90.332,7.324,0.000
1587072135.241,-56.641,-109.863,-87.891,-22.461,0.000
1587072135.245,-44.922,-12.207,-107.422,-61.035,0.000
1587072135.249,17.090,147.461,-114.746,-32.715,0.000
1587072135.253,0.000,56.152,-99.609,14.160,0.000
1587072135.257,-41.016,-31.250,-108.398,5.859,0.000
1587072135.261,-52.246,-272.461,-99.121,-42.969,0.000
1587072135.265,-29.297,-336.426,-103.516,-83.496,0.000
1587072135.269,3.418,-487.305,-135.742,-14.648,0.000
1587072135.273,-35.156,-239.746,-114.746,11.230,0.000
1587072135.277,-57.129,-155.273,-103.027,-53.711,0.000
1587072135.280,-20.996,-396.484,-88.867,-103.027,0.000
1587072135.284,-19.531,44.922,-75.684,-75.195,0.000
1587072135.288,-29.297,357.910,-89.844,-18.066,0.000
1587072135.292,-64.941,15.625,-97.656,-46.387,0.000
1587072135.296,-62.988,-312.012,-98.633,-104.004,0.000
1587072135.300,-8.789,127.441,-100.586,-104.004,0.000
1587072135.304,-10.254,473.633,-102.051,-38.574,0.000
1587072135.308,-50.781,-62.988,-93.750,-25.879,0.000
1587072135.312,-37.109,-668.945,-102.539,-65.918,0.000
1587072135.316,-7.812,-623.535,-82.520,-67.871,0.000
1587072135.320,-11.230,308.105,-73.242,-14.648,0.000
1587072135.323,-41.504,420.898,-109.863,-4.883,0.000
1587072135.327,-59.570,-222.656,-102.539,-69.824,0.000
1587072135.331,-30.273,-77.637,-67.383,-97.656,0.000
1587072135.335,8.301,512.695,-41.504,-43.457,0.000
1587072135.339,0.977,402.832,-61.523,-1.465,0.000
1587072135.343,-59.570,-334.473,-85.449,-60.547,0.000
1587072135.347,-59.082,-99.121,-75.195,-118.164,0.000
1587072135.351,-10.254,428.223,-76.660,-68.359,0.000
1587072135.355,-28.320,65.918,-105.469,16.602,0.000
1587072135.359,-80.566,-796.875,-142.090,13.672,0.000
1587072135.362,-85.938,-515.137,-101.562,-70.801,0.000
1587072135.366,-47.363,379.395,-80.078,-95.215,0.000
1587072135.370,-26.855,216.797,-107.422,-13.184,0.000
1587072135.374,-53.223,-377.441,-117.676,-0.488,0.000
1587072135.378,-74.707,-223.145,-83.984,-60.059,0.000
1587072135.382,-47.363,257.812,-53.711,-58.594,0.000
1587072135.386,-13.672,314.453,-73.730,-5.859,0.000
1587072135.390,-36.621,-50.781,-90.332,9.277,0.000
1587072135.394,-69.336,-121.094,-88.379,-37.109,0.000
1587072135.398,-55.664,-23.438,-87.402,-92.773,0.000
1587072135.402,-27.344,-145.996,-66.406,-51.270,0.000
1587072135.405,-37.109,-74.219,-50.781,14.648,0.000
1587072135.409,-60.059,-27.344,-67.871,-13.672,0.000
1587072135.413,-40.527,-212.402,-72.754,-60.547,0.000
1587072135.417,-3.418,-182.129,-66.406,-47.852,0.000
1587072135.421,-20.996,99.609,-62.988,27.344,0.000
1587072135.425,-57.129,136.719,-67.871,36.621,0.000
1587072135.429,-40.527,-55.664,-77.637,-68.359,0.000
1587072135.433,-1.953,-484.375,-79.590,-66.406,0.000
1587072135.437,-0.488,-381.836,-51.270,-10.254,0.000
1587072135.441,-47.852,67.871,-52.246,-14.648,0.000
1587072135.445,-63.477,-113.770,-73.242,-64.941,0.000
1587072135.448,-14.160,-399.902,-62.988,-87.891,0.000
1587072135.452,7.324,-111.816,-45.410,-19.531,0.000
1587072135.456,-31.250,319.336,-45.410,13.672,0.000
1587072135.460,-46.387,-47.363,-68.848,-36.133,0.000
1587072135.464,-20.508,-465.332,-62.988,-90.332,0.000
1587072135.468,-2.930,-43.457,-62.012,-52.246,0.000
1587072135.472,-28.320,181.152,-88.867,-2.930,0.000
1587072135.476,-60.547,-351.562,-106.934,-35.156,0.000
1587072135.480,-53.711,-554.199,-88.379,-92.773,0.000
1587072135.484,-33.203,254.883,-66.406,-80.078,0.000
1587072135.487,-36.621,506.348,-76.172,-16.113,0.000
1587072135.491,-64.941,-123.047,-87.891,2.441,0.000
1587072135.495,-75.684,-687.012,-69.336,-67.871,0.000
1587072135.499,-39.551,-181.641,-52.246,-104.980,0.000
1587072135.503,-30.273,475.586,-65.430,-33.203,0.000
1587072135.507,-44.922,-162.598,-89.355,7.812,0.000
1587072135.511,-46.387,-610.840,-69.336,-42.480,0.000
1587072135.515,-29.297,106.445,-37.109,-87.402,0.000
1587072135.519,-12.207,550.293,-60.547,-57.617,0.000
1587072135.523,-21.973,-184.570,-116.211,-4.395,0.000
1587072135.527,-55.664,-686.523,-99.121,-38.086,0.000
1587072135.530,-29.297,-221.680,-75.195,-90.820,0.000
1587072135.534,12.207,276.855,-85.449,-57.617,0.000
1587072135.538,-21.973,54.688,-101.562,-16.113,0.000
1587072135.542,-70.312,-458.008,-101.074,-44.434,0.000
1587072135.546,-48.828,-336.914,-67.871,-88.867,0.000
1587072135.550,-16.113,124.512,-65.430,-86.914,0.000
1587072135.554,-9.277,-420.410,-93.262,-3.906,0.000
1587072135.558,-44.434,-522.461,-82.520,-5.371,0.000
1587072135.562,-55.664,-207.520,-70.801,-96.191,0.000
1587072135.566,-14.160,47.363,-73.730,-95.703,0.000
1587072135.570,-0.488,285.156,-67.871,-12.207,0.000
1587072135.573,-50.293,274.902,-77.148,-8.301,0.000
1587072135.577,-59.570,101.562,-91.309,-69.336,0.000
1587072135.581,-13.184,13.184,-83.496,-87.402,0.000
1587072135.585,8.301,216.797,-75.684,-31.738,0.000
1587072135.589,-29.785,80.078,-108.398,28.320,0.000
1587072135.593,-58.594,-348.145,-108.887,-2.930,0.000
1587072135.597,-13.184,-549.316,-81.543,-63.965,0.000
1587072135.601,27.832,-383.789,-65.430,-43.457,0.000
1587072135.605,4.395,143.555,-67.871,12.207,0.000
1587072135.609,-22.949,-80.078,-90.332,-3.418,0.000
1587072135.612,-28.320,-672.363,-83.008,-62.988,0.000
1587072135.616,-6.348,-128.906,-49.316,-56.152,0.000
1587072135.620,-3.906,572.266,-57.129,4.395,0.000
1587072135.624,-32.715,112.305,-108.398,13.184,0.000
1587072135.628,-44.922,-335.938,-104.004,-26.855,0.000
1587072135.632,-18.555,124.512,-81.543,-46.875,0.000
1587072135.636,4.883,349.609,-88.867,15.137,0.000
1587072135.640,-28.320,-90.820,-119.141,22.949,0.000
1587072135.644,-44.922,-848.145,-151.367,-27.344,0.000
1587072135.648,-35.156,-462.891,-102.539,-68.359,0.000
1587072135.652,-22.461,429.688,-68.848,-46.387,0.000
1587072135.655,-26.367,63.965,-87.891,8.789,0.000
1587072135.659,-68.359,-344.727,-84.473,-10.742,0.000
1587072135.663,-55.176,-60.059,-80.078,-75.684,0.000
1587072135.667,-10.254,416.504,-84.961,-47.852,0.000
1587072135.671,-20.996,293.945,-96.191,22.949,0.000
1587072135.675,-63.965,-130.371,-83.496,-10.254,0.000
1587072135.679,-72.266,-70.801,-66.406,-91.309,0.000
1587072135.683,-41.504,83.496,-70.312,-80.566,0.000
1587072135.687,-31.250,-57.129,-83.496,-9.277,0.000
1587072135.691,-50.781,-591.797,-79.102,-13.672,0.000
1587072135.695,-52.246,-271.484,-73.242,-82.520,0.000
1587072135.698,-38.086,255.859,-83.496,-74.219,0.000
1587072135.702,-19.531,155.762,-83.008,-9.766,0.000
1587072135.706,-42.969,-46.387,-83.008,3.418,0.000
1587072135.710,-97.168,-23.926,-91.309,-39.551,0.000
1587072135.714,-66.895,19.043,-85.449,-78.125,0.000
1587072135.718,-15.625,102.051,-76.660,-47.852,0.000
1587072135.722,-36.133,210.449,-101.074,12.207,0.000
1587072135.726,-77.148,0.488,-107.422,-38.086,0.000
1587072135.730,-65.430,-333.496,-109.375,-113.770,0.000
1587072135.734,-20.020,-654.297,-94.238,-58.594,0.000
1587072135.737,-28.320,-154.785,-55.176,-1.465,0.000
1587072135.741,-62.012,190.430,-73.242,-9.277,0.000
1587072135.745,-46.875,-151.367,-72.266,-67.871,0.000
1587072135.749,-1.953,-232.422,-58.594,-87.402,0.000
1587072135.753,0.488,254.883,-71.777,-12.207,0.000
1587072135.757,-41.504,267.090,-93.262,16.602,0.000
1587072135.761,-55.664,-299.805,-105.469,-63.477,0.000
1587072135.765,-24.902,-235.840,-82.520,-104.492,0.000
1587072135.769,-4.883,407.715,-68.359,-36.621,0.000
1587072135.773,-22.461,366.699,-91.797,-2.930,0.000
1587072135.777,-46.875,-457.031,-100.098,-37.109,0.000
1587072135.780,-4.883,-565.918,-67.383,-68.359,0.000
1587072135.784,24.414,296.875,-67.383,-44.922,0.000
1587072135.788,-21.484,438.477,-118.652,20.020,0.000
1587072135.792,-61.523,-431.641,-135.742,-6.348,0.000
1587072135.796,-47.363,-723.633,-94.727,-96.680,0.000
1587072135.800,-12.207,244.629,-75.195,-79.590,0.000
1587072135.804,-14.160,524.902,-88.867,-13.184,0.000
1587072135.808,-51.270,-210.938,-108.887,-19.531,0.000
1587072135.812,-49.805,-253.906,-100.098,-76.172,0.000
1587072135.816,-13.672,223.633,-86.426,-88.379,0.000
1587072135.820,11.719,263.184,-113.770,-20.020,0.000
1587072135.823,-20.508,-299.805,-129.395,-9.766,0.000
1587072135.827,-61.035,-665.039,-109.863,-72.754,0.000
1587072135.831,-33.691,-186.523,-77.148,-113.770,0.000
1587072135.835,1.953,254.395,-88.867,-40.527,0.000
1587072135.839,-19.043,-589.844,-130.371,29.297,0.000
1587072135.843,-66.406,-762.207,-111.328,-51.270,0.000
1587072135.847,-62.500,34.180,-100.586,-125.000,0.000
1587072135.851,-22.949,320.801,-121.094,-83.008,0.000
1587072135.855,-26.367,134.277,-118.652,13.184,0.000
1587072135.859,-83.496,-44.922,-113.770,-1.953,0.000
1587072135.862,-74.707,-7.324,-109.375,-95.703,0.000
1587072135.866,-25.879,90.332,-89.355,-81.543,0.000
1587072135.870,-30.273,-7.324,-74.219,-3.906,0.000
1587072135.874,-72.754,-215.332,-67.383,-14.648,0.000
1587072135.878,-82.031,-203.613,-72.754,-87.402,0.000
1587072135.882,-41.992,-391.602,-102.051,-93.262,0.000
1587072135.886,-6.348,-621.582,-92.773,-41.504,0.000
1587072135.890,-44.434,76.660,-62.988,-23.438,0.000
1587072135.894,-77.637,64.453,-79.102,-50.781,0.000
1587072135.898,-28.809,-302.246,-83.496,-75.195,0.000
1587072135.902,-0.488,248.535,-74.707,-41.016,0.000
1587072135.905,-25.391,497.559,-78.613,3.906,0.000
1587072135.909,-41.504,69.336,-84.961,-27.832,0.000
1587072135.913,-49.805,-241.211,-73.242,-93.262,0.000
1587072135.917,-33.203,-95.703,-58.594,-85.449,0.000
1587072135.921,-42.480,83.984,-57.617,-10.742,0.000
1587072135.925,-74.219,-97.168,-68.359,-23.438,0.000
1587072135.929,-61.523,-415.039,-61.523,-85.449,0.000
1587072135.933,-19.043,79.590,-56.152,-67.871,0.000
1587072135.937,-7.812,204.102,-86.914,-4.883,0.000
1587072135.941,-40.039,-358.887,-102.539,2.930,0.000
1587072135.945,-47.852,-675.293,-71.777,-45.898,0.000
1587072135.948,-30.273,96.680,-23.438,-86.914,0.000
1587072135.952,-23.438,669.922,-50.293,-55.176,0.000
1587072135.956,-41.992,28.320,-86.426,-17.578,0.000
1587072135.960,-64.453,-462.891,-77.148,-65.430,0.000
1587072135.964,-44.922,-292.969,-72.754,-107.910,0.000
1587072135.968,-4.883,41.992,-58.105,-61.035,0.000
1587072135.972,-25.391,-150.879,-58.105,9.766,0.000
1587072135.976,-49.805,-665.527,-51.270,-3.418,0.000
1587072135.980,-40.039,-160.645,-47.363,-83.496,0.000
1587072135.984,-18.555,543.457,-60.059,-50.293,0.000
1587072135.987,-18.066,-11.230,-92.773,29.297,0.000
1587072135.991,-40.039,-702.637,-85.938,-20.020,0.000
1587072135.995,-52.246,-180.176,-57.617,-92.773,0.000
1587072135.999,-12.207,73.242,-57.617,-70.312,0.000
1587072136.003,-4.395,49.316,-56.641,-3.906,0.000
1587072136.007,-59.082,108.398,-72.754,0.000,0.000
1587072136.011,-73.242,-94.727,-89.355,-58.105,0.000
1587072136.015,-24.414,-258.301,-77.148,-75.195,0.000
1587072136.019,-0.488,-97.656,-67.383,-35.645,0.000
1587072136.023,-24.414,230.957,-73.242,-9.277,0.000
1587072136.027,-50.293,33.691,-80.566,-46.875,0.000
1587072136.030,-54.199,-297.852,-81.055,-95.215,0.000
1587072136.034,-36.621,-87.402,-92.285,-47.852,0.000
1587072136.038,-45.410,326.660,-81.055,10.742,0.000
1587072136.042,-69.824,206.055,-77.148,-37.598,0.000
1587072136.046,-53.223,-350.098,-87.402,-92.285,0.000
1587072136.050,-18.066,-639.160,-75.195,-55.176,0.000
1587072136.054,-27.832,-58.594,-71.289,6.836,0.000
1587072136.058,-65.430,-125.977,-92.285,0.977,0.000
1587072136.062,-62.012,-681.641,-99.609,-48.340,0.000
1587072136.066,-10.254,-908.691,-85.449,-41.992,0.000
1587072136.070,-20.996,-54.688,-66.895,-30.762,0.000
1587072136.073,-67.383,281.738,-85.938,-28.809,0.000
